Sample:	'wa-1(EM)
File name:	100.FDS
Run Date:	'17:25:45, 07/11/2024
Operator:	WXH
Comment:	'

Instrument
Model:	F-4600 FL Spectrophotometer
Serial Number:	3080-002
ROM Version:	5J24000 02

Instrument Parameters
Measurement type:	Wavelength scan
Scan mode:	Emission
Data mode:	Fluorescence
EX WL:	460.0 nm
EM  Start WL:	480.0 nm
EM  End WL:	780.0 nm
Scan speed:	1200 nm/min
Delay:	0.0 s
EX Slit:	2.5 nm
EM Slit:	2.5 nm
PMT Voltage:	600 V
Response:	Auto 
Corrected spectra:	Off
Shutter control:	On

Peak integration
Integration method:	Rectangular
Sensitivity:	1
Threshold:	1.000

Peaks
No.	Valley(nm)	Valley(Data)
1	483.6	15.09
2	508.2	255.9
3	511.2	280.6
4	515.6	287.8
5	517.8	291.0
6	531.4	199.1
7	545.6	137.2
8	551.4	118.3
9	555.6	103.7
10	562.6	73.72
11	566.0	74.34
12	568.4	62.71
13	577.2	46.22
14	580.6	41.97
15	583.6	36.21
16	586.2	36.83
17	588.0	30.61
18	591.4	33.98
19	596.0	22.75
20	602.0	23.15
21	606.8	14.38
22	609.6	17.52
23	617.2	14.65
24	619.6	10.55
25	623.0	13.17
26	627.4	10.06
27	631.4	8.635
28	633.8	9.982
29	636.8	8.876
30	644.4	9.690
31	647.6	7.546
32	649.4	10.98
33	652.6	10.30
34	656.6	6.478
35	661.2	7.686
36	663.4	7.670
37	668.2	7.597
38	670.8	6.728
39	672.4	8.238
40	676.2	7.281
41	678.4	6.294
42	685.4	7.748
43	688.2	5.118
44	691.2	7.854
45	693.4	4.554
46	696.6	8.251
47	701.8	6.206
48	704.6	4.688
49	706.8	6.411
50	710.2	5.578
51	715.6	5.983
52	721.0	5.234
53	723.6	6.873
54	726.8	5.966
55	730.2	8.235
56	735.2	6.534
57	740.0	5.631
58	745.0	7.405
59	748.6	5.600
60	755.8	3.228
61	758.0	4.589
62	762.8	5.760
63	767.0	5.330
64	768.6	6.426
65	773.8	6.891
66	776.4	7.494
67	780.0	7.526

Data Points
nm	Data
480.0	6.922
481.0	18.33
482.0	16.88
483.0	15.64
484.0	19.81
485.0	25.80
486.0	28.40
487.0	24.21
488.0	32.64
489.0	34.66
490.0	40.05
491.0	44.66
492.0	47.45
493.0	63.92
494.0	69.20
495.0	77.77
496.0	90.42
497.0	91.71
498.0	128.2
499.0	128.1
500.0	147.8
501.0	160.6
502.0	185.9
503.0	191.9
504.0	213.5
505.0	247.9
506.0	254.2
507.0	265.7
508.0	260.2
509.0	282.9
510.0	287.2
511.0	300.2
512.0	289.1
513.0	313.0
514.0	296.6
515.0	293.4
516.0	291.3
517.0	304.6
518.0	296.0
519.0	293.7
520.0	294.1
521.0	276.2
522.0	275.9
523.0	272.7
524.0	265.6
525.0	247.9
526.0	246.2
527.0	237.0
528.0	246.1
529.0	234.0
530.0	220.8
531.0	212.3
532.0	220.7
533.0	220.6
534.0	227.6
535.0	208.3
536.0	202.5
537.0	199.1
538.0	189.1
539.0	183.4
540.0	187.5
541.0	182.0
542.0	162.9
543.0	161.2
544.0	162.7
545.0	152.9
546.0	154.8
547.0	151.8
548.0	140.6
549.0	134.9
550.0	126.8
551.0	126.1
552.0	127.6
553.0	119.8
554.0	118.4
555.0	106.5
556.0	106.3
557.0	113.5
558.0	102.3
559.0	98.43
560.0	97.84
561.0	81.60
562.0	80.26
563.0	84.07
564.0	83.26
565.0	78.87
566.0	74.34
567.0	70.90
568.0	69.04
569.0	65.25
570.0	68.23
571.0	71.94
572.0	63.83
573.0	62.88
574.0	56.43
575.0	56.80
576.0	47.09
577.0	48.58
578.0	48.62
579.0	50.90
580.0	44.83
581.0	57.34
582.0	48.52
583.0	41.74
584.0	37.36
585.0	41.03
586.0	38.03
587.0	43.03
588.0	30.61
589.0	35.37
590.0	37.05
591.0	38.87
592.0	38.81
593.0	35.56
594.0	32.24
595.0	30.37
596.0	22.75
597.0	24.72
598.0	30.27
599.0	29.63
600.0	28.50
601.0	27.15
602.0	23.15
603.0	28.63
604.0	25.82
605.0	21.84
606.0	23.30
607.0	17.39
608.0	24.91
609.0	20.76
610.0	21.46
611.0	22.40
612.0	24.10
613.0	21.94
614.0	18.53
615.0	17.95
616.0	16.58
617.0	15.52
618.0	17.51
619.0	18.51
620.0	16.75
621.0	17.03
622.0	18.03
623.0	13.17
624.0	21.36
625.0	16.25
626.0	13.94
627.0	11.30
628.0	14.77
629.0	14.58
630.0	12.89
631.0	10.84
632.0	11.45
633.0	14.25
634.0	11.82
635.0	14.52
636.0	9.538
637.0	10.16
638.0	12.33
639.0	13.46
640.0	15.81
641.0	15.02
642.0	13.67
643.0	10.39
644.0	10.43
645.0	11.24
646.0	10.04
647.0	11.43
648.0	12.11
649.0	13.05
650.0	12.38
651.0	12.43
652.0	10.90
653.0	13.04
654.0	12.01
655.0	10.17
656.0	8.301
657.0	11.06
658.0	9.761
659.0	11.94
660.0	9.678
661.0	7.917
662.0	10.18
663.0	10.25
664.0	9.647
665.0	11.06
666.0	12.12
667.0	9.024
668.0	9.675
669.0	9.323
670.0	8.673
671.0	6.778
672.0	10.24
673.0	9.194
674.0	10.86
675.0	9.995
676.0	7.550
677.0	7.882
678.0	10.01
679.0	8.611
680.0	11.71
681.0	10.06
682.0	11.56
683.0	13.30
684.0	10.38
685.0	10.75
686.0	8.932
687.0	9.422
688.0	6.905
689.0	5.992
690.0	10.99
691.0	8.707
692.0	9.636
693.0	7.511
694.0	7.446
695.0	10.87
696.0	11.26
697.0	9.951
698.0	10.79
699.0	10.95
700.0	10.52
701.0	8.522
702.0	7.863
703.0	9.646
704.0	9.247
705.0	8.568
706.0	9.926
707.0	8.549
708.0	8.260
709.0	8.101
710.0	6.099
711.0	8.544
712.0	7.387
713.0	10.37
714.0	11.32
715.0	7.674
716.0	8.989
717.0	5.995
718.0	11.64
719.0	10.55
720.0	9.986
721.0	5.234
722.0	8.217
723.0	7.954
724.0	8.169
725.0	10.25
726.0	7.787
727.0	7.539
728.0	11.50
729.0	12.77
730.0	11.01
731.0	11.11
732.0	8.711
733.0	8.877
734.0	8.377
735.0	7.851
736.0	12.43
737.0	9.897
738.0	9.650
739.0	8.350
740.0	5.631
741.0	12.95
742.0	9.929
743.0	10.06
744.0	8.736
745.0	7.405
746.0	11.52
747.0	8.327
748.0	6.510
749.0	8.777
750.0	10.96
751.0	10.10
752.0	8.691
753.0	6.625
754.0	7.409
755.0	7.069
756.0	6.026
757.0	6.134
758.0	4.589
759.0	8.709
760.0	8.153
761.0	9.748
762.0	7.970
763.0	7.387
764.0	7.141
765.0	9.247
766.0	8.138
767.0	5.330
768.0	9.924
769.0	6.629
770.0	9.793
771.0	12.09
772.0	9.382
773.0	7.539
774.0	8.728
775.0	9.377
776.0	7.647
777.0	8.510
778.0	7.393
779.0	9.195
780.0	7.526

Sample:	'wa-2(EM)
File name:	100.FDS
Run Date:	'17:26:15, 07/11/2024
Operator:	WXH
Comment:	'

Instrument
Model:	F-4600 FL Spectrophotometer
Serial Number:	3080-002
ROM Version:	5J24000 02

Instrument Parameters
Measurement type:	Wavelength scan
Scan mode:	Emission
Data mode:	Fluorescence
EX WL:	460.0 nm
EM  Start WL:	480.0 nm
EM  End WL:	780.0 nm
Scan speed:	1200 nm/min
Delay:	0.0 s
EX Slit:	2.5 nm
EM Slit:	2.5 nm
PMT Voltage:	600 V
Response:	Auto 
Corrected spectra:	Off
Shutter control:	On

Peak integration
Integration method:	Rectangular
Sensitivity:	1
Threshold:	1.000

Peaks
No.	Valley(nm)	Valley(Data)
1	516.6	282.4
2	517.8	285.3
3	526.0	227.3
4	527.4	220.8
5	533.2	212.3
6	535.8	188.7
7	539.8	172.4
8	543.2	155.6
9	547.8	127.3
10	550.6	119.7
11	558.8	89.42
12	562.0	85.77
13	565.0	69.57
14	569.6	63.57
15	576.4	46.53
16	581.2	40.71
17	583.4	38.43
18	591.2	26.91
19	595.4	27.86
20	602.0	20.02
21	603.8	20.82
22	606.6	21.98
23	610.2	19.53
24	615.2	13.15
25	619.4	15.31
26	623.0	12.90
27	625.0	12.25
28	628.0	11.18
29	631.0	10.81
30	633.2	12.47
31	637.4	10.94
32	642.0	8.707
33	645.0	11.16
34	647.0	5.760
35	648.4	8.106
36	651.0	11.46
37	653.2	6.241
38	657.6	8.658
39	660.8	9.013
40	665.2	7.490
41	668.4	5.095
42	674.4	6.896
43	676.2	5.592
44	681.8	7.151
45	684.0	7.046
46	689.6	5.547
47	692.2	5.003
48	695.0	8.107
49	697.8	5.892
50	703.2	6.807
51	707.0	8.635
52	710.2	5.277
53	713.6	6.469
54	717.2	5.917
55	719.6	5.507
56	723.0	6.814
57	726.8	7.402
58	729.8	5.768
59	733.0	6.782
60	737.2	5.371
61	742.2	5.679
62	746.6	7.244
63	751.4	6.866
64	753.0	6.034
65	759.0	8.521
66	762.6	6.741
67	767.6	5.575
68	770.2	6.775
69	774.6	4.755
70	780.0	7.425

Data Points
nm	Data
480.0	16.98
481.0	11.61
482.0	14.54
483.0	15.65
484.0	20.62
485.0	23.30
486.0	21.35
487.0	27.86
488.0	26.01
489.0	36.38
490.0	40.76
491.0	40.26
492.0	46.57
493.0	62.17
494.0	72.35
495.0	78.41
496.0	95.67
497.0	105.4
498.0	119.1
499.0	127.1
500.0	139.3
501.0	152.7
502.0	180.5
503.0	199.9
504.0	222.8
505.0	238.2
506.0	249.6
507.0	279.7
508.0	281.2
509.0	293.2
510.0	272.8
511.0	289.6
512.0	305.1
513.0	300.0
514.0	299.6
515.0	302.8
516.0	288.1
517.0	291.3
518.0	286.5
519.0	306.5
520.0	288.3
521.0	281.2
522.0	259.7
523.0	267.7
524.0	257.7
525.0	248.5
526.0	227.3
527.0	243.2
528.0	249.6
529.0	238.4
530.0	236.7
531.0	228.1
532.0	228.7
533.0	217.8
534.0	221.0
535.0	225.0
536.0	199.1
537.0	207.6
538.0	195.0
539.0	186.1
540.0	180.5
541.0	191.0
542.0	171.6
543.0	160.4
544.0	168.3
545.0	160.4
546.0	151.4
547.0	129.3
548.0	138.1
549.0	142.1
550.0	128.5
551.0	120.8
552.0	126.4
553.0	118.5
554.0	121.0
555.0	126.2
556.0	105.3
557.0	98.67
558.0	99.16
559.0	94.96
560.0	96.73
561.0	96.61
562.0	85.77
563.0	88.22
564.0	76.64
565.0	69.57
566.0	77.43
567.0	80.76
568.0	65.26
569.0	65.24
570.0	71.33
571.0	76.65
572.0	61.05
573.0	62.47
574.0	60.97
575.0	63.77
576.0	48.56
577.0	49.55
578.0	52.89
579.0	52.97
580.0	49.67
581.0	44.70
582.0	43.02
583.0	43.93
584.0	38.61
585.0	43.78
586.0	44.24
587.0	41.64
588.0	40.58
589.0	35.04
590.0	35.37
591.0	31.03
592.0	28.50
593.0	34.52
594.0	28.34
595.0	29.98
596.0	30.43
597.0	31.99
598.0	31.03
599.0	24.49
600.0	25.46
601.0	23.71
602.0	20.02
603.0	22.53
604.0	21.21
605.0	20.67
606.0	27.99
607.0	24.02
608.0	27.03
609.0	25.87
610.0	19.91
611.0	24.23
612.0	20.13
613.0	16.37
614.0	17.42
615.0	15.62
616.0	17.49
617.0	18.24
618.0	19.44
619.0	18.58
620.0	17.17
621.0	18.14
622.0	17.62
623.0	12.90
624.0	15.64
625.0	12.25
626.0	14.17
627.0	13.73
628.0	11.18
629.0	18.53
630.0	11.31
631.0	10.81
632.0	17.02
633.0	14.14
634.0	17.41
635.0	18.05
636.0	13.74
637.0	12.14
638.0	10.66
639.0	11.86
640.0	11.75
641.0	14.71
642.0	8.707
643.0	15.70
644.0	14.04
645.0	11.16
646.0	11.37
647.0	5.760
648.0	11.21
649.0	10.90
650.0	12.57
651.0	11.46
652.0	12.92
653.0	8.978
654.0	13.51
655.0	10.74
656.0	10.97
657.0	9.110
658.0	10.38
659.0	9.943
660.0	10.80
661.0	9.967
662.0	12.46
663.0	11.40
664.0	8.112
665.0	9.145
666.0	8.252
667.0	10.86
668.0	7.084
669.0	10.97
670.0	9.359
671.0	9.316
672.0	7.875
673.0	6.971
674.0	7.551
675.0	8.257
676.0	7.765
677.0	10.59
678.0	8.261
679.0	10.20
680.0	11.64
681.0	8.651
682.0	9.352
683.0	6.642
684.0	7.046
685.0	9.406
686.0	10.40
687.0	10.34
688.0	9.638
689.0	6.046
690.0	7.331
691.0	9.964
692.0	6.811
693.0	11.12
694.0	9.187
695.0	8.107
696.0	9.466
697.0	8.475
698.0	6.167
699.0	9.362
700.0	9.017
701.0	11.47
702.0	10.74
703.0	8.151
704.0	9.222
705.0	9.819
706.0	15.03
707.0	8.635
708.0	9.133
709.0	11.38
710.0	6.376
711.0	7.190
712.0	10.37
713.0	8.149
714.0	7.767
715.0	13.59
716.0	10.39
717.0	6.473
718.0	6.790
719.0	7.187
720.0	7.729
721.0	6.939
722.0	8.978
723.0	6.814
724.0	9.430
725.0	11.76
726.0	11.15
727.0	9.306
728.0	9.675
729.0	9.646
730.0	5.773
731.0	7.715
732.0	10.64
733.0	6.782
734.0	10.71
735.0	8.427
736.0	9.388
737.0	6.787
738.0	12.01
739.0	10.07
740.0	9.529
741.0	8.668
742.0	6.033
743.0	7.087
744.0	9.846
745.0	10.79
746.0	8.269
747.0	8.761
748.0	8.009
749.0	9.639
750.0	5.564
751.0	7.576
752.0	8.072
753.0	6.034
754.0	8.450
755.0	10.35
756.0	12.56
757.0	9.344
758.0	10.20
759.0	8.521
760.0	12.15
761.0	12.43
762.0	9.953
763.0	7.482
764.0	5.686
765.0	10.61
766.0	8.388
767.0	7.552
768.0	8.801
769.0	11.75
770.0	8.536
771.0	7.926
772.0	6.448
773.0	6.835
774.0	7.594
775.0	6.288
776.0	10.51
777.0	6.587
778.0	8.558
779.0	6.978
780.0	7.425

Sample:	'wa-3(EM)
File name:	100.FDS
Run Date:	'17:26:45, 07/11/2024
Operator:	WXH
Comment:	'

Instrument
Model:	F-4600 FL Spectrophotometer
Serial Number:	3080-002
ROM Version:	5J24000 02

Instrument Parameters
Measurement type:	Wavelength scan
Scan mode:	Emission
Data mode:	Fluorescence
EX WL:	460.0 nm
EM  Start WL:	480.0 nm
EM  End WL:	780.0 nm
Scan speed:	1200 nm/min
Delay:	0.0 s
EX Slit:	2.5 nm
EM Slit:	2.5 nm
PMT Voltage:	600 V
Response:	Auto 
Corrected spectra:	Off
Shutter control:	On

Peak integration
Integration method:	Rectangular
Sensitivity:	1
Threshold:	1.000

Peaks
No.	Valley(nm)	Valley(Data)
1	494.8	64.02
2	497.2	94.99
3	515.8	275.8
4	519.6	265.2
5	524.0	250.1
6	530.2	213.8
7	537.4	180.5
8	545.2	141.0
9	550.0	115.9
10	553.0	110.3
11	556.2	92.83
12	558.6	87.98
13	564.0	74.02
14	566.2	68.34
15	572.4	54.84
16	579.0	43.08
17	582.2	43.04
18	584.8	36.86
19	589.4	30.63
20	591.8	33.56
21	597.0	20.86
22	600.8	23.89
23	602.2	19.40
24	606.0	19.45
25	607.2	20.24
26	609.4	18.87
27	610.8	18.41
28	615.6	12.42
29	617.0	14.27
30	621.8	14.50
31	623.2	13.27
32	625.6	9.355
33	628.2	11.09
34	634.0	9.669
35	635.4	9.047
36	637.2	11.00
37	640.6	7.896
38	645.0	8.698
39	646.6	8.031
40	649.2	8.105
41	652.4	7.223
42	654.2	9.797
43	656.8	9.171
44	658.0	8.184
45	662.2	6.834
46	665.6	5.950
47	668.4	11.20
48	670.8	8.456
49	674.0	7.247
50	677.2	6.562
51	680.8	10.04
52	684.6	4.857
53	687.0	6.380
54	693.6	7.061
55	695.6	7.077
56	697.4	5.930
57	700.0	6.484
58	704.2	8.105
59	706.6	7.019
60	708.0	9.345
61	710.4	7.358
62	713.0	6.881
63	717.8	6.451
64	719.2	6.320
65	722.6	6.113
66	727.4	7.276
67	729.2	6.095
68	731.0	7.962
69	734.6	9.098
70	737.2	6.356
71	743.6	4.772
72	748.4	4.476
73	751.0	5.014
74	753.0	5.546
75	755.2	4.895
76	758.0	6.963
77	759.6	6.083
78	764.8	5.484
79	768.4	7.615
80	772.2	6.545
81	774.6	6.193
82	776.4	6.123

Data Points
nm	Data
480.0	15.81
481.0	12.68
482.0	14.61
483.0	15.01
484.0	18.19
485.0	22.75
486.0	23.55
487.0	27.62
488.0	29.61
489.0	28.84
490.0	38.80
491.0	44.05
492.0	52.61
493.0	59.37
494.0	68.60
495.0	70.70
496.0	98.01
497.0	95.00
498.0	96.28
499.0	138.6
500.0	170.6
501.0	165.7
502.0	181.8
503.0	186.0
504.0	209.5
505.0	242.6
506.0	253.8
507.0	262.1
508.0	261.2
509.0	269.1
510.0	285.2
511.0	287.1
512.0	303.8
513.0	304.6
514.0	308.8
515.0	300.7
516.0	283.6
517.0	315.5
518.0	307.4
519.0	278.9
520.0	284.9
521.0	287.3
522.0	274.6
523.0	276.7
524.0	250.1
525.0	266.0
526.0	250.1
527.0	238.2
528.0	250.7
529.0	231.1
530.0	217.3
531.0	220.8
532.0	232.3
533.0	220.4
534.0	221.8
535.0	211.8
536.0	200.3
537.0	185.7
538.0	183.6
539.0	178.4
540.0	185.6
541.0	183.1
542.0	176.5
543.0	158.4
544.0	148.1
545.0	147.3
546.0	153.1
547.0	141.2
548.0	146.4
549.0	123.4
550.0	115.9
551.0	122.9
552.0	119.1
553.0	110.3
554.0	120.1
555.0	105.8
556.0	95.55
557.0	100.5
558.0	95.16
559.0	88.62
560.0	95.12
561.0	96.46
562.0	92.03
563.0	82.62
564.0	74.02
565.0	81.00
566.0	71.66
567.0	79.46
568.0	74.62
569.0	68.85
570.0	65.32
571.0	67.67
572.0	56.86
573.0	57.26
574.0	62.06
575.0	54.61
576.0	52.38
577.0	60.42
578.0	49.42
579.0	43.08
580.0	48.30
581.0	45.31
582.0	45.03
583.0	46.25
584.0	42.55
585.0	38.14
586.0	43.23
587.0	40.38
588.0	39.32
589.0	34.01
590.0	32.40
591.0	39.40
592.0	34.29
593.0	35.01
594.0	36.58
595.0	26.10
596.0	27.47
597.0	20.86
598.0	27.95
599.0	24.60
600.0	24.47
601.0	28.75
602.0	22.01
603.0	24.88
604.0	22.06
605.0	21.54
606.0	19.45
607.0	20.77
608.0	20.63
609.0	22.25
610.0	26.81
611.0	21.75
612.0	19.18
613.0	15.56
614.0	14.95
615.0	14.03
616.0	15.20
617.0	14.27
618.0	16.06
619.0	18.77
620.0	14.97
621.0	13.42
622.0	14.63
623.0	15.98
624.0	17.18
625.0	14.66
626.0	11.90
627.0	13.20
628.0	11.85
629.0	14.23
630.0	13.80
631.0	17.61
632.0	16.38
633.0	12.45
634.0	9.669
635.0	12.66
636.0	13.73
637.0	11.33
638.0	15.58
639.0	13.76
640.0	14.37
641.0	11.75
642.0	12.90
643.0	14.99
644.0	11.01
645.0	8.698
646.0	14.15
647.0	11.64
648.0	16.60
649.0	8.910
650.0	10.16
651.0	11.31
652.0	12.85
653.0	10.12
654.0	14.28
655.0	10.54
656.0	10.70
657.0	12.02
658.0	8.184
659.0	15.19
660.0	10.52
661.0	8.741
662.0	8.553
663.0	8.663
664.0	10.67
665.0	11.31
666.0	11.63
667.0	15.71
668.0	13.74
669.0	17.31
670.0	11.66
671.0	9.352
672.0	11.02
673.0	12.19
674.0	7.247
675.0	9.038
676.0	8.626
677.0	6.896
678.0	11.18
679.0	11.66
680.0	11.21
681.0	10.53
682.0	12.41
683.0	9.751
684.0	7.069
685.0	9.193
686.0	12.38
687.0	6.380
688.0	9.413
689.0	9.820
690.0	9.628
691.0	9.098
692.0	9.489
693.0	9.142
694.0	10.91
695.0	10.71
696.0	9.834
697.0	7.245
698.0	8.602
699.0	7.981
700.0	6.484
701.0	9.213
702.0	10.31
703.0	14.13
704.0	10.79
705.0	12.52
706.0	10.62
707.0	10.94
708.0	9.345
709.0	11.37
710.0	11.97
711.0	9.841
712.0	11.21
713.0	6.881
714.0	9.323
715.0	10.06
716.0	9.849
717.0	7.818
718.0	6.703
719.0	9.712
720.0	9.265
721.0	12.16
722.0	9.237
723.0	7.969
724.0	8.447
725.0	9.512
726.0	9.825
727.0	10.18
728.0	9.277
729.0	7.632
730.0	8.488
731.0	7.962
732.0	9.547
733.0	10.42
734.0	10.19
735.0	13.51
736.0	7.860
737.0	7.959
738.0	8.864
739.0	8.390
740.0	8.481
741.0	8.490
742.0	7.251
743.0	6.176
744.0	5.036
745.0	7.321
746.0	9.570
747.0	9.543
748.0	7.440
749.0	9.565
750.0	7.557
751.0	5.014
752.0	9.437
753.0	5.546
754.0	8.066
755.0	4.952
756.0	8.375
757.0	8.618
758.0	6.963
759.0	11.32
760.0	6.579
761.0	8.143
762.0	9.643
763.0	7.829
764.0	9.203
765.0	7.741
766.0	11.58
767.0	12.08
768.0	9.714
769.0	11.26
770.0	10.94
771.0	12.20
772.0	7.807
773.0	8.321
774.0	8.142
775.0	9.924
776.0	7.482
777.0	7.231
778.0	9.739
779.0	9.579
780.0	8.595

Sample:	'wa-4(EM)
File name:	100.FDS
Run Date:	'17:27:15, 07/11/2024
Operator:	WXH
Comment:	'

Instrument
Model:	F-4600 FL Spectrophotometer
Serial Number:	3080-002
ROM Version:	5J24000 02

Instrument Parameters
Measurement type:	Wavelength scan
Scan mode:	Emission
Data mode:	Fluorescence
EX WL:	460.0 nm
EM  Start WL:	480.0 nm
EM  End WL:	780.0 nm
Scan speed:	1200 nm/min
Delay:	0.0 s
EX Slit:	2.5 nm
EM Slit:	2.5 nm
PMT Voltage:	600 V
Response:	Auto 
Corrected spectra:	Off
Shutter control:	On

Peak integration
Integration method:	Rectangular
Sensitivity:	1
Threshold:	1.000

Peaks
No.	Valley(nm)	Valley(Data)
1	483.4	15.41
2	511.8	286.6
3	513.8	282.7
4	515.4	289.1
5	518.6	277.8
6	520.2	250.7
7	522.0	255.4
8	528.2	222.2
9	531.4	229.1
10	539.4	175.3
11	546.0	141.6
12	549.0	126.7
13	552.6	117.5
14	557.2	97.27
15	561.4	82.87
16	563.2	75.59
17	568.6	64.12
18	574.2	54.49
19	576.6	49.01
20	582.2	42.29
21	588.2	32.98
22	590.8	32.06
23	593.8	25.68
24	599.0	24.82
25	601.6	23.94
26	605.8	17.72
27	609.2	14.74
28	611.0	13.69
29	613.2	15.35
30	616.2	13.31
31	620.6	12.71
32	621.8	12.68
33	625.4	12.07
34	631.0	9.486
35	633.6	8.804
36	637.8	6.252
37	642.2	9.876
38	645.6	8.449
39	647.4	6.816
40	650.0	8.829
41	653.0	6.988
42	655.4	6.177
43	657.6	6.448
44	660.2	7.269
45	664.6	8.664
46	666.8	5.857
47	673.2	6.668
48	680.2	6.925
49	687.2	5.538
50	689.4	3.665
51	692.6	4.718
52	700.8	5.864
53	705.2	7.011
54	708.2	5.369
55	711.4	5.378
56	714.0	7.919
57	718.8	5.644
58	722.4	4.342
59	727.4	6.141
60	729.2	5.819
61	733.6	6.658
62	740.2	5.597
63	742.8	6.144
64	744.4	6.765
65	747.0	5.324
66	750.0	8.348
67	755.8	4.447
68	757.4	4.493
69	760.6	6.446
70	764.6	5.711
71	768.0	7.697
72	776.8	4.888
73	780.0	4.770

Data Points
nm	Data
480.0	11.02
481.0	14.30
482.0	18.28
483.0	19.51
484.0	18.77
485.0	19.99
486.0	23.81
487.0	27.13
488.0	26.53
489.0	35.77
490.0	38.89
491.0	46.83
492.0	51.80
493.0	57.48
494.0	68.51
495.0	80.44
496.0	91.73
497.0	100.1
498.0	127.7
499.0	141.8
500.0	150.0
501.0	151.3
502.0	184.6
503.0	198.4
504.0	225.7
505.0	242.4
506.0	250.7
507.0	269.5
508.0	275.6
509.0	284.1
510.0	288.5
511.0	299.0
512.0	288.6
513.0	299.9
514.0	288.3
515.0	305.3
516.0	290.8
517.0	303.5
518.0	293.6
519.0	292.9
520.0	257.7
521.0	280.6
522.0	255.4
523.0	265.6
524.0	254.3
525.0	256.5
526.0	248.6
527.0	236.9
528.0	225.2
529.0	240.0
530.0	230.7
531.0	240.9
532.0	243.0
533.0	204.5
534.0	214.8
535.0	204.7
536.0	205.2
537.0	194.0
538.0	191.6
539.0	188.2
540.0	186.4
541.0	195.6
542.0	175.0
543.0	160.9
544.0	153.9
545.0	150.4
546.0	141.6
547.0	152.0
548.0	135.2
549.0	126.7
550.0	128.6
551.0	136.4
552.0	124.6
553.0	124.1
554.0	120.3
555.0	123.8
556.0	107.7
557.0	103.2
558.0	101.3
559.0	103.7
560.0	96.51
561.0	88.98
562.0	87.92
563.0	82.34
564.0	85.52
565.0	77.48
566.0	72.23
567.0	72.98
568.0	66.30
569.0	68.99
570.0	64.58
571.0	68.72
572.0	66.63
573.0	64.64
574.0	57.38
575.0	59.52
576.0	57.06
577.0	52.34
578.0	52.81
579.0	53.92
580.0	44.45
581.0	45.88
582.0	45.46
583.0	45.08
584.0	46.70
585.0	42.83
586.0	39.87
587.0	33.96
588.0	36.20
589.0	41.60
590.0	33.19
591.0	32.71
592.0	34.63
593.0	27.50
594.0	29.59
595.0	27.15
596.0	33.67
597.0	30.61
598.0	27.58
599.0	24.82
600.0	24.01
601.0	25.98
602.0	27.53
603.0	29.47
604.0	20.61
605.0	23.52
606.0	18.59
607.0	27.46
608.0	20.23
609.0	15.47
610.0	20.29
611.0	13.69
612.0	18.59
613.0	17.71
614.0	18.61
615.0	20.15
616.0	16.24
617.0	16.35
618.0	21.09
619.0	16.37
620.0	13.08
621.0	15.14
622.0	13.92
623.0	19.19
624.0	14.48
625.0	12.64
626.0	15.92
627.0	15.48
628.0	17.28
629.0	11.92
630.0	13.42
631.0	9.486
632.0	12.48
633.0	13.45
634.0	11.22
635.0	14.12
636.0	16.48
637.0	10.58
638.0	10.56
639.0	9.552
640.0	12.59
641.0	14.09
642.0	11.55
643.0	13.78
644.0	13.99
645.0	11.77
646.0	10.17
647.0	9.417
648.0	12.46
649.0	8.972
650.0	8.829
651.0	14.11
652.0	11.70
653.0	6.988
654.0	12.24
655.0	10.74
656.0	8.917
657.0	7.582
658.0	9.481
659.0	8.661
660.0	8.660
661.0	14.59
662.0	13.33
663.0	15.79
664.0	10.61
665.0	9.139
666.0	10.49
667.0	6.507
668.0	13.89
