Sample:	'wa-1(EM)
File name:	20.FDS
Run Date:	'18:52:40, 07/11/2024
Operator:	WXH
Comment:	'

Instrument
Model:	F-4600 FL Spectrophotometer
Serial Number:	3080-002
ROM Version:	5J24000 02

Instrument Parameters
Measurement type:	Wavelength scan
Scan mode:	Emission
Data mode:	Fluorescence
EX WL:	460.0 nm
EM  Start WL:	480.0 nm
EM  End WL:	780.0 nm
Scan speed:	1200 nm/min
Delay:	0.0 s
EX Slit:	2.5 nm
EM Slit:	2.5 nm
PMT Voltage:	600 V
Response:	Auto 
Corrected spectra:	Off
Shutter control:	On

Peak integration
Integration method:	Rectangular
Sensitivity:	1
Threshold:	1.000

Peaks
No.	Valley(nm)	Valley(Data)
1	507.4	 1106
2	512.0	 1085
3	519.4	919.2
4	526.8	793.8
5	530.6	741.4
6	538.2	623.1
7	546.6	481.0
8	549.4	437.6
9	570.2	211.4
10	572.6	186.5
11	575.6	160.9
12	585.0	118.0
13	589.2	99.76
14	591.2	88.31
15	594.6	82.95
16	596.2	88.07
17	600.2	66.27
18	606.2	57.27
19	609.6	53.62
20	611.6	47.79
21	617.0	36.61
22	620.8	32.91
23	625.2	28.60
24	626.8	32.72
25	630.0	25.84
26	635.0	20.35
27	638.0	21.00
28	640.8	18.69
29	642.6	19.66
30	645.6	15.41
31	648.6	16.25
32	652.6	16.84
33	657.8	12.80
34	662.6	11.01
35	664.2	14.88
36	666.6	13.99
37	669.4	13.88
38	670.6	11.90
39	672.6	10.14
40	676.4	9.282
41	679.4	10.66
42	685.4	7.771
43	688.2	9.916
44	693.6	10.51
45	695.6	9.017
46	700.4	7.397
47	703.6	8.590
48	708.0	10.20
49	713.0	10.24
50	714.6	9.522
51	716.2	9.307
52	718.4	12.39
53	719.8	9.345
54	722.2	9.170
55	724.2	9.179
56	727.4	8.344
57	730.2	10.17
58	733.6	9.367
59	736.4	8.877
60	741.0	7.156
61	745.0	8.935
62	750.2	9.401
63	754.6	9.170
64	756.6	9.192
65	758.4	7.804
66	760.8	7.094
67	762.4	7.818
68	765.8	8.163
69	767.8	8.771
70	771.6	7.693
71	776.0	8.356
72	780.0	10.52

Data Points
nm	Data
480.0	48.24
481.0	60.73
482.0	73.29
483.0	89.40
484.0	102.4
485.0	128.6
486.0	161.3
487.0	190.1
488.0	222.1
489.0	275.8
490.0	304.1
491.0	356.1
492.0	416.7
493.0	467.5
494.0	522.6
495.0	613.2
496.0	692.7
497.0	749.7
498.0	793.4
499.0	864.7
500.0	897.9
501.0	985.5
502.0	 1002
503.0	 1015
504.0	 1031
505.0	 1092
506.0	 1118
507.0	 1116
508.0	 1144
509.0	 1134
510.0	 1131
511.0	 1136
512.0	 1085
513.0	 1110
514.0	 1077
515.0	 1089
516.0	 1028
517.0	978.7
518.0	999.9
519.0	967.8
520.0	938.9
521.0	960.3
522.0	914.1
523.0	906.9
524.0	860.5
525.0	833.1
526.0	831.3
527.0	807.3
528.0	818.3
529.0	769.5
530.0	767.5
531.0	773.0
532.0	758.3
533.0	707.3
534.0	706.2
535.0	688.1
536.0	665.5
537.0	658.1
538.0	636.2
539.0	610.6
540.0	607.9
541.0	572.7
542.0	563.1
543.0	559.9
544.0	536.5
545.0	526.4
546.0	483.5
547.0	502.4
548.0	493.8
549.0	457.4
550.0	451.1
551.0	440.1
552.0	415.8
553.0	398.0
554.0	382.9
555.0	365.9
556.0	353.2
557.0	345.7
558.0	307.3
559.0	304.2
560.0	303.2
561.0	308.3
562.0	283.3
563.0	277.7
564.0	272.8
565.0	256.9
566.0	243.4
567.0	243.1
568.0	232.2
569.0	221.3
570.0	216.1
571.0	213.3
572.0	214.5
573.0	186.8
574.0	199.0
575.0	172.0
576.0	167.8
577.0	175.4
578.0	161.3
579.0	153.2
580.0	150.9
581.0	146.8
582.0	152.1
583.0	132.0
584.0	127.9
585.0	118.0
586.0	130.3
587.0	118.4
588.0	123.1
589.0	101.9
590.0	119.9
591.0	93.24
592.0	98.98
593.0	98.51
594.0	91.70
595.0	84.72
596.0	93.92
597.0	93.37
598.0	84.53
599.0	86.72
600.0	75.93
601.0	70.93
602.0	81.94
603.0	77.39
604.0	71.96
605.0	69.25
606.0	57.53
607.0	58.06
608.0	55.82
609.0	58.86
610.0	56.32
611.0	55.91
612.0	50.97
613.0	55.48
614.0	47.72
615.0	45.20
616.0	40.83
617.0	36.61
618.0	47.76
619.0	48.72
620.0	44.15
621.0	34.54
622.0	40.84
623.0	35.43
624.0	36.92
625.0	30.59
626.0	39.42
627.0	33.15
628.0	40.16
629.0	34.19
630.0	25.84
631.0	32.10
632.0	24.68
633.0	28.34
634.0	20.22
635.0	20.35
636.0	21.47
637.0	19.29
638.0	21.00
639.0	21.87
640.0	29.76
641.0	19.18
642.0	24.56
643.0	21.08
644.0	22.71
645.0	19.52
646.0	23.00
647.0	19.58
648.0	20.81
649.0	18.08
650.0	18.34
651.0	19.61
652.0	18.80
653.0	18.93
654.0	18.14
655.0	19.77
656.0	18.88
657.0	15.34
658.0	14.39
659.0	20.14
660.0	15.34
661.0	16.39
662.0	14.31
663.0	20.18
664.0	16.04
665.0	18.22
666.0	15.76
667.0	16.20
668.0	17.20
669.0	14.75
670.0	19.58
671.0	13.94
672.0	18.22
673.0	14.44
674.0	14.23
675.0	14.13
676.0	12.84
677.0	14.19
678.0	15.69
679.0	14.91
680.0	13.59
681.0	14.64
682.0	15.04
683.0	13.66
684.0	10.58
685.0	12.24
686.0	13.41
687.0	12.97
688.0	10.57
689.0	12.27
690.0	13.69
691.0	18.66
692.0	13.20
693.0	11.56
694.0	11.73
695.0	10.15
696.0	9.331
697.0	12.71
698.0	13.02
699.0	10.45
700.0	8.981
701.0	12.29
702.0	11.32
703.0	11.52
704.0	11.08
705.0	10.82
706.0	14.37
707.0	13.73
708.0	10.20
709.0	14.57
710.0	14.14
711.0	11.31
712.0	11.85
713.0	10.24
714.0	15.16
715.0	13.52
716.0	9.458
717.0	14.18
718.0	12.47
719.0	15.37
720.0	12.27
721.0	18.55
722.0	11.32
723.0	12.80
724.0	10.62
725.0	13.18
726.0	15.59
727.0	12.80
728.0	13.35
729.0	15.42
730.0	11.18
731.0	10.86
732.0	14.13
733.0	12.07
734.0	9.706
735.0	13.24
736.0	9.370
737.0	9.865
738.0	12.93
739.0	11.69
740.0	13.13
741.0	7.156
742.0	9.074
743.0	10.29
744.0	11.07
745.0	8.935
746.0	10.61
747.0	12.70
748.0	12.37
749.0	9.445
750.0	12.71
751.0	11.61
752.0	11.58
753.0	9.770
754.0	10.47
755.0	13.16
756.0	12.44
757.0	13.92
758.0	11.28
759.0	8.510
760.0	10.02
761.0	10.54
762.0	10.12
763.0	7.830
764.0	12.01
765.0	13.04
766.0	10.10
767.0	12.31
768.0	10.81
769.0	10.06
770.0	14.47
771.0	12.02
772.0	8.179
773.0	10.89
774.0	15.41
775.0	10.36
776.0	8.356
777.0	11.79
778.0	11.68
779.0	8.092
780.0	10.52

Sample:	'wa-2(EM)
File name:	20.FDS
Run Date:	'18:53:10, 07/11/2024
Operator:	WXH
Comment:	'

Instrument
Model:	F-4600 FL Spectrophotometer
Serial Number:	3080-002
ROM Version:	5J24000 02

Instrument Parameters
Measurement type:	Wavelength scan
Scan mode:	Emission
Data mode:	Fluorescence
EX WL:	460.0 nm
EM  Start WL:	480.0 nm
EM  End WL:	780.0 nm
Scan speed:	1200 nm/min
Delay:	0.0 s
EX Slit:	2.5 nm
EM Slit:	2.5 nm
PMT Voltage:	600 V
Response:	Auto 
Corrected spectra:	Off
Shutter control:	On

Peak integration
Integration method:	Rectangular
Sensitivity:	1
Threshold:	1.000

Peaks
No.	Valley(nm)	Valley(Data)
1	507.4	 1123
2	509.6	 1122
3	527.8	778.3
4	534.4	659.0
5	536.4	645.3
6	559.4	301.0
7	564.2	243.2
8	569.6	209.3
9	573.2	180.5
10	578.6	152.0
11	584.4	121.9
12	588.6	98.26
13	592.6	91.93
14	598.0	71.15
15	600.8	68.63
16	606.4	55.11
17	609.0	54.08
18	612.2	42.51
19	618.0	28.90
20	621.0	35.40
21	627.2	25.93
22	630.0	24.00
23	632.2	25.13
24	635.4	21.05
25	639.0	20.57
26	642.0	19.04
27	645.0	16.82
28	651.0	17.59
29	652.2	16.60
30	655.8	13.70
31	658.2	14.53
32	664.2	12.43
33	665.8	12.94
34	667.8	12.54
35	671.0	9.560
36	675.2	12.08
37	677.6	11.80
38	680.0	13.36
39	682.0	13.24
40	687.0	9.640
41	691.4	10.16
42	696.0	9.232
43	700.8	7.816
44	704.2	8.071
45	708.2	5.786
46	713.2	7.717
47	719.0	7.346
48	720.8	9.655
49	723.6	8.801
50	728.4	7.934
51	733.0	9.892
52	736.2	8.093
53	740.6	8.499
54	744.8	8.348
55	750.4	9.108
56	755.2	7.583
57	758.8	7.719
58	763.8	7.869
59	765.2	7.521
60	768.0	9.736
61	770.6	8.287
62	773.4	7.488
63	775.4	6.682
64	777.4	9.852

Data Points
nm	Data
480.0	61.52
481.0	61.84
482.0	66.59
483.0	90.37
484.0	108.9
485.0	125.4
486.0	156.8
487.0	181.1
488.0	219.9
489.0	269.8
490.0	319.0
491.0	369.9
492.0	422.8
493.0	458.5
494.0	518.8
495.0	616.5
496.0	676.3
497.0	729.0
498.0	791.0
499.0	874.1
500.0	906.4
501.0	962.3
502.0	 1002
503.0	 1066
504.0	 1060
505.0	 1145
506.0	 1142
507.0	 1138
508.0	 1140
509.0	 1146
510.0	 1147
511.0	 1134
512.0	 1140
513.0	 1093
514.0	 1077
515.0	 1058
516.0	 1037
517.0	987.6
518.0	995.9
519.0	965.0
520.0	931.7
521.0	940.4
522.0	938.1
523.0	898.9
524.0	868.1
525.0	854.4
526.0	834.6
527.0	816.9
528.0	804.6
529.0	791.2
530.0	783.3
531.0	769.8
532.0	718.3
533.0	705.4
534.0	676.3
535.0	713.7
536.0	688.6
537.0	655.8
538.0	660.1
539.0	624.3
540.0	594.5
541.0	589.3
542.0	569.6
543.0	552.4
544.0	548.2
545.0	539.6
546.0	526.3
547.0	491.4
548.0	479.4
549.0	440.0
550.0	430.7
551.0	422.9
552.0	405.7
553.0	387.1
554.0	381.7
555.0	364.5
556.0	354.6
557.0	320.4
558.0	326.0
559.0	324.0
560.0	305.6
561.0	308.9
562.0	281.7
563.0	271.0
564.0	248.9
565.0	260.6
566.0	253.1
567.0	227.1
568.0	231.9
569.0	219.9
570.0	213.2
571.0	210.0
572.0	182.4
573.0	193.1
574.0	191.2
575.0	193.6
576.0	175.3
577.0	162.0
578.0	166.3
579.0	156.1
580.0	149.4
581.0	140.6
582.0	139.0
583.0	130.1
584.0	123.8
585.0	138.4
586.0	131.0
587.0	115.9
588.0	107.3
589.0	103.1
590.0	103.8
591.0	97.42
592.0	104.9
593.0	98.46
594.0	99.95
595.0	98.89
596.0	92.67
597.0	72.74
598.0	71.15
599.0	78.24
600.0	78.30
601.0	70.02
602.0	73.14
603.0	73.04
604.0	71.68
605.0	64.03
606.0	59.99
607.0	69.18
608.0	61.58
609.0	54.08
610.0	57.97
611.0	49.49
612.0	42.99
613.0	45.31
614.0	48.11
615.0	49.50
616.0	49.88
617.0	45.00
618.0	28.90
619.0	35.08
620.0	41.48
621.0	35.40
622.0	36.97
623.0	40.45
624.0	37.15
625.0	38.15
626.0	31.44
627.0	32.40
628.0	31.24
629.0	31.16
630.0	24.00
631.0	31.16
632.0	26.67
633.0	28.29
634.0	27.72
635.0	24.57
636.0	26.18
637.0	26.67
638.0	27.72
639.0	20.57
640.0	21.72
641.0	20.88
642.0	19.04
643.0	25.16
644.0	20.32
645.0	16.82
646.0	23.32
647.0	22.63
648.0	23.16
649.0	22.63
650.0	19.94
651.0	17.59
652.0	17.87
653.0	18.99
654.0	21.63
655.0	20.56
656.0	17.06
657.0	20.81
658.0	16.28
659.0	16.81
660.0	15.28
661.0	17.07
662.0	16.57
663.0	15.40
664.0	12.52
665.0	14.44
666.0	12.98
667.0	17.79
668.0	15.55
669.0	20.80
670.0	12.92
671.0	9.560
672.0	13.57
673.0	14.15
674.0	15.82
675.0	13.27
676.0	14.88
677.0	13.26
678.0	12.79
679.0	13.46
680.0	13.36
681.0	16.43
682.0	13.24
683.0	14.42
684.0	11.68
685.0	15.08
686.0	13.02
687.0	9.640
688.0	12.82
689.0	10.36
690.0	12.13
691.0	10.29
692.0	11.71
693.0	9.646
694.0	11.59
695.0	10.52
696.0	9.232
697.0	10.41
698.0	10.45
699.0	12.97
700.0	10.68
701.0	9.945
702.0	12.35
703.0	10.86
704.0	10.57
705.0	10.02
706.0	11.80
707.0	10.74
708.0	8.759
709.0	12.25
710.0	12.61
711.0	10.75
712.0	14.72
713.0	7.722
714.0	11.41
715.0	9.126
716.0	12.09
717.0	9.651
718.0	8.489
719.0	7.346
720.0	11.36
721.0	11.03
722.0	12.39
723.0	10.81
724.0	11.08
725.0	11.83
726.0	12.54
727.0	12.10
728.0	10.04
729.0	8.419
730.0	9.689
731.0	11.16
732.0	12.53
733.0	9.892
734.0	11.78
735.0	13.04
736.0	10.36
737.0	11.71
738.0	9.499
739.0	10.17
740.0	9.056
741.0	12.15
742.0	10.95
743.0	14.19
744.0	13.29
745.0	12.39
746.0	10.52
747.0	12.81
748.0	12.28
749.0	11.04
750.0	11.49
751.0	10.02
752.0	12.15
753.0	12.51
754.0	10.37
755.0	7.994
756.0	9.643
757.0	14.59
758.0	10.26
759.0	8.477
760.0	12.02
761.0	11.64
762.0	11.73
763.0	8.038
764.0	8.815
765.0	8.561
766.0	11.77
767.0	11.81
768.0	9.736
769.0	15.01
770.0	10.57
771.0	9.286
772.0	15.14
773.0	9.311
774.0	11.75
775.0	9.120
776.0	10.20
777.0	11.74
778.0	11.34
779.0	12.44
780.0	14.69

Sample:	'wa-3(EM)
File name:	20.FDS
Run Date:	'18:53:40, 07/11/2024
Operator:	WXH
Comment:	'

Instrument
Model:	F-4600 FL Spectrophotometer
Serial Number:	3080-002
ROM Version:	5J24000 02

Instrument Parameters
Measurement type:	Wavelength scan
Scan mode:	Emission
Data mode:	Fluorescence
EX WL:	460.0 nm
EM  Start WL:	480.0 nm
EM  End WL:	780.0 nm
Scan speed:	1200 nm/min
Delay:	0.0 s
EX Slit:	2.5 nm
EM Slit:	2.5 nm
PMT Voltage:	600 V
Response:	Auto 
Corrected spectra:	Off
Shutter control:	On

Peak integration
Integration method:	Rectangular
Sensitivity:	1
Threshold:	1.000

Peaks
No.	Valley(nm)	Valley(Data)
1	509.0	 1111
2	511.6	 1072
3	518.6	945.6
4	523.6	860.9
5	528.8	781.3
6	533.8	676.8
7	557.2	328.5
8	562.0	273.0
9	563.6	250.2
10	571.0	200.7
11	579.0	139.1
12	585.0	114.6
13	587.2	104.8
14	591.8	97.53
15	599.2	79.19
16	601.6	65.19
17	611.0	43.70
18	613.8	46.56
19	618.6	39.36
20	622.2	32.91
21	624.2	33.02
22	628.0	27.08
23	632.2	24.87
24	634.4	25.54
25	639.4	19.45
26	642.0	18.70
27	644.4	17.37
28	646.4	17.35
29	649.8	15.65
30	655.8	12.96
31	658.4	12.91
32	659.6	13.42
33	661.8	13.41
34	667.6	10.05
35	670.0	12.68
36	672.0	13.25
37	673.4	11.56
38	677.0	11.43
39	680.0	10.76
40	682.8	9.805
41	685.4	10.22
42	688.0	7.505
43	691.0	8.639
44	693.2	8.250
45	695.4	7.970
46	700.2	8.871
47	703.0	8.407
48	705.4	8.243
49	707.0	8.698
50	711.0	9.887
51	713.4	9.113
52	717.8	8.317
53	723.8	9.907
54	727.6	7.524
55	729.0	9.661
56	731.6	8.090
57	734.0	10.05
58	736.6	9.054
59	738.4	10.43
60	743.6	7.635
61	746.6	8.185
62	749.8	9.700
63	755.2	5.819
64	756.4	6.565
65	758.8	5.910
66	762.2	7.840
67	764.0	7.105
68	767.2	10.89
69	770.6	8.202
70	773.4	6.148
71	775.4	6.518
72	778.4	10.21

Data Points
nm	Data
480.0	77.34
481.0	62.25
482.0	70.29
483.0	86.51
484.0	102.7
485.0	133.2
486.0	172.0
487.0	188.9
488.0	200.0
489.0	255.9
490.0	303.0
491.0	358.6
492.0	404.7
493.0	497.1
494.0	544.5
495.0	602.9
496.0	668.1
497.0	752.5
498.0	794.1
499.0	850.5
500.0	918.9
501.0	970.7
502.0	 1037
503.0	 1082
504.0	 1104
505.0	 1082
506.0	 1133
507.0	 1154
508.0	 1172
509.0	 1111
510.0	 1124
511.0	 1114
512.0	 1093
513.0	 1131
514.0	 1094
515.0	 1061
516.0	 1040
517.0	 1023
518.0	986.2
519.0	980.2
520.0	956.3
521.0	956.1
522.0	885.2
523.0	895.9
524.0	861.3
525.0	873.2
526.0	822.5
527.0	825.8
528.0	801.2
529.0	807.4
530.0	769.2
531.0	761.1
532.0	732.3
533.0	752.1
534.0	686.4
535.0	705.9
536.0	662.6
537.0	650.3
538.0	617.7
539.0	626.7
540.0	616.9
541.0	605.2
542.0	566.0
543.0	566.3
544.0	540.0
545.0	526.4
546.0	515.0
547.0	482.6
548.0	497.6
549.0	467.4
550.0	443.2
551.0	444.6
552.0	406.4
553.0	387.0
554.0	381.4
555.0	361.2
556.0	350.6
557.0	338.0
558.0	349.3
559.0	322.3
560.0	315.3
561.0	275.7
562.0	273.0
563.0	281.5
564.0	258.1
565.0	262.6
566.0	262.0
567.0	228.1
568.0	227.2
569.0	219.1
570.0	216.9
571.0	200.7
572.0	214.7
573.0	186.5
574.0	183.0
575.0	192.1
576.0	173.9
577.0	167.7
578.0	154.7
579.0	139.1
580.0	149.0
581.0	152.0
582.0	147.1
583.0	137.4
584.0	131.6
585.0	114.6
586.0	135.6
587.0	104.9
588.0	115.6
589.0	112.3
590.0	100.6
591.0	98.53
592.0	101.8
593.0	111.5
594.0	88.78
595.0	94.97
596.0	94.25
597.0	85.41
598.0	86.07
599.0	87.90
600.0	90.79
601.0	76.90
602.0	72.03
603.0	66.76
604.0	68.27
605.0	69.27
606.0	64.79
607.0	57.35
608.0	54.03
609.0	56.57
610.0	52.77
611.0	43.70
612.0	52.31
613.0	49.08
614.0	51.90
615.0	48.85
616.0	46.88
617.0	46.92
618.0	47.25
619.0	44.52
620.0	45.88
621.0	39.18
622.0	33.87
623.0	33.58
624.0	33.98
625.0	36.21
626.0	27.38
627.0	30.24
628.0	27.08
629.0	32.03
630.0	32.99
631.0	28.84
632.0	26.86
633.0	30.48
634.0	30.35
635.0	29.61
636.0	27.53
637.0	25.88
638.0	23.46
639.0	22.52
640.0	22.58
641.0	22.50
642.0	18.70
643.0	22.98
644.0	19.02
645.0	19.89
646.0	19.75
647.0	22.84
648.0	16.44
649.0	18.76
650.0	16.00
651.0	16.00
652.0	22.09
653.0	17.36
654.0	16.11
655.0	12.70
656.0	13.03
657.0	18.62
658.0	16.12
659.0	17.89
660.0	14.75
661.0	17.94
662.0	15.72
663.0	17.18
664.0	19.76
665.0	17.27
666.0	14.23
667.0	11.24
668.0	17.77
669.0	14.16
670.0	12.68
671.0	14.95
672.0	13.25
673.0	14.72
674.0	12.42
675.0	17.24
676.0	15.00
677.0	11.43
678.0	13.88
679.0	10.73
680.0	10.76
681.0	15.18
682.0	10.59
683.0	12.85
684.0	14.17
685.0	12.70
686.0	12.87
687.0	13.30
688.0	7.505
689.0	12.08
690.0	10.12
691.0	8.639
692.0	13.79
693.0	10.36
694.0	11.24
695.0	10.55
696.0	9.525
697.0	9.798
698.0	15.72
699.0	11.00
700.0	9.631
701.0	13.15
702.0	14.30
703.0	8.407
704.0	12.73
705.0	9.937
706.0	9.203
707.0	8.698
708.0	11.07
709.0	9.685
710.0	11.59
711.0	9.887
712.0	12.86
713.0	11.36
714.0	12.30
715.0	9.908
716.0	9.790
717.0	9.032
718.0	9.462
719.0	14.56
720.0	20.69
721.0	13.71
722.0	13.60
723.0	11.92
724.0	11.73
725.0	16.34
726.0	13.14
727.0	11.31
728.0	9.381
729.0	9.661
730.0	10.75
731.0	13.00
732.0	10.85
733.0	12.41
734.0	10.05
735.0	12.80
736.0	11.24
737.0	10.92
738.0	14.24
739.0	13.27
740.0	15.42
741.0	9.871
742.0	11.05
743.0	9.378
744.0	8.554
745.0	10.83
746.0	11.40
747.0	10.17
748.0	12.23
749.0	11.74
750.0	10.01
751.0	11.17
752.0	13.86
753.0	10.49
754.0	10.63
755.0	6.747
756.0	7.275
757.0	7.357
758.0	11.69
759.0	6.067
760.0	8.944
761.0	14.10
762.0	8.240
763.0	10.75
764.0	7.105
765.0	10.89
766.0	11.96
767.0	13.03
768.0	11.57
769.0	14.09
770.0	9.279
771.0	9.339
772.0	9.481
773.0	9.528
774.0	13.41
775.0	8.282
776.0	9.459
777.0	13.20
778.0	10.51
779.0	12.72
780.0	12.16

Sample:	'wa-4(EM)
File name:	20.FDS
Run Date:	'18:54:11, 07/11/2024
Operator:	WXH
Comment:	'

Instrument
Model:	F-4600 FL Spectrophotometer
Serial Number:	3080-002
ROM Version:	5J24000 02

Instrument Parameters
Measurement type:	Wavelength scan
Scan mode:	Emission
Data mode:	Fluorescence
EX WL:	460.0 nm
EM  Start WL:	480.0 nm
EM  End WL:	780.0 nm
Scan speed:	1200 nm/min
Delay:	0.0 s
EX Slit:	2.5 nm
EM Slit:	2.5 nm
PMT Voltage:	600 V
Response:	Auto 
Corrected spectra:	Off
Shutter control:	On

Peak integration
Integration method:	Rectangular
Sensitivity:	1
Threshold:	1.000

Peaks
No.	Valley(nm)	Valley(Data)
1	506.8	 1105
2	509.2	 1135
3	514.2	 1036
4	528.0	771.9
5	532.8	682.8
6	535.2	693.3
7	544.6	503.9
8	557.6	329.4
9	566.8	222.8
10	576.0	165.8
11	582.4	126.3
12	586.8	107.3
13	592.4	89.85
14	596.8	78.87
15	603.8	57.01
16	609.0	50.93
17	611.4	46.23
18	613.6	38.99
19	617.8	39.16
20	620.2	34.70
21	623.0	35.48
22	626.6	27.27
23	630.8	27.64
24	635.4	22.02
25	638.6	17.83
26	641.0	20.62
27	648.4	14.74
28	652.2	13.65
29	656.2	10.62
30	658.0	12.74
31	660.8	13.35
32	664.6	12.23
33	667.2	13.54
34	669.4	8.855
35	675.0	11.39
36	677.0	11.08
37	678.6	10.69
38	682.4	12.85
39	685.2	9.734
40	688.0	9.140
41	691.0	8.932
42	694.2	7.804
43	699.2	10.26
44	701.2	10.80
45	706.8	8.475
46	709.0	7.373
47	713.8	8.833
48	715.2	9.971
49	720.2	8.500
50	721.8	9.463
51	724.6	7.621
52	728.8	8.024
53	732.0	10.66
54	736.8	8.243
55	740.6	7.291
56	742.8	8.313
57	745.0	10.55
58	746.6	10.43
59	749.0	8.397
60	750.8	7.202
61	753.0	7.991
62	755.6	7.746
63	759.0	8.830
64	762.4	8.432
65	764.8	8.355
66	768.4	7.905
67	771.2	7.469
68	775.6	8.955
69	777.8	6.015

Data Points
nm	Data
480.0	46.29
481.0	57.23
482.0	79.26
483.0	83.26
484.0	104.6
485.0	118.4
486.0	150.1
487.0	180.1
488.0	206.9
489.0	250.0
490.0	304.7
491.0	350.8
492.0	424.1
493.0	473.0
494.0	524.7
495.0	604.5
496.0	674.3
497.0	724.1
498.0	831.0
499.0	865.5
500.0	950.4
501.0	977.3
502.0	 1000
503.0	 1062
504.0	 1094
505.0	 1123
506.0	 1135
507.0	 1127
508.0	 1164
509.0	 1143
510.0	 1166
511.0	 1145
512.0	 1133
513.0	 1107
514.0	 1045
515.0	 1077
516.0	 1077
517.0	 1022
518.0	979.3
519.0	975.5
520.0	943.2
521.0	902.0
522.0	911.1
523.0	891.2
524.0	896.5
525.0	855.1
526.0	867.0
527.0	836.1
528.0	771.9
529.0	812.7
530.0	773.5
531.0	759.5
532.0	731.8
533.0	697.2
534.0	718.0
535.0	706.2
536.0	714.8
537.0	669.3
538.0	633.6
539.0	629.8
540.0	620.9
541.0	617.0
542.0	579.2
543.0	555.6
544.0	543.1
545.0	515.2
546.0	510.4
547.0	495.6
548.0	455.3
549.0	464.3
550.0	424.9
551.0	422.1
552.0	393.1
553.0	386.2
554.0	380.3
555.0	354.2
556.0	364.6
557.0	350.9
558.0	352.4
559.0	357.4
560.0	325.5
561.0	293.9
562.0	279.1
563.0	267.7
564.0	257.2
565.0	249.6
566.0	248.2
567.0	236.8
568.0	228.8
569.0	222.8
570.0	211.8
571.0	206.7
572.0	201.5
573.0	203.3
574.0	176.8
575.0	175.0
576.0	165.8
577.0	173.6
578.0	168.2
579.0	155.5
580.0	160.1
581.0	142.8
582.0	138.4
583.0	134.7
584.0	129.9
585.0	129.4
586.0	118.9
587.0	110.7
588.0	120.0
589.0	119.8
590.0	106.3
591.0	101.7
592.0	96.66
593.0	100.3
594.0	99.45
595.0	103.6
596.0	83.06
597.0	82.58
598.0	88.78
599.0	92.56
600.0	80.32
601.0	83.89
602.0	70.29
603.0	65.67
604.0	57.13
605.0	64.85
606.0	71.45
607.0	59.23
608.0	57.04
609.0	50.93
610.0	52.69
611.0	52.55
612.0	59.38
613.0	47.17
614.0	40.54
615.0	41.29
616.0	49.21
617.0	46.47
618.0	40.61
619.0	39.90
620.0	37.42
621.0	41.64
622.0	44.53
623.0	35.48
624.0	35.51
625.0	37.08
626.0	34.18
627.0	34.66
628.0	34.11
629.0	36.58
630.0	36.99
631.0	30.38
632.0	32.16
633.0	30.47
634.0	25.61
635.0	22.86
636.0	21.72
637.0	28.27
638.0	18.74
639.0	18.04
640.0	23.90
641.0	20.62
642.0	23.48
643.0	26.01
644.0	21.34
645.0	22.25
646.0	17.57
647.0	18.79
648.0	17.01
649.0	16.16
650.0	15.11
651.0	15.16
652.0	13.65
653.0	17.67
654.0	14.43
655.0	14.40
656.0	11.36
657.0	18.69
658.0	12.74
659.0	15.95
660.0	17.70
661.0	15.04
662.0	18.46
663.0	16.64
664.0	16.54
665.0	12.87
666.0	17.27
667.0	13.73
668.0	15.97
669.0	10.10
670.0	11.01
671.0	13.98
672.0	12.95
673.0	8.862
674.0	12.03
675.0	11.39
676.0	13.29
677.0	11.08
678.0	13.48
679.0	11.96
680.0	13.84
681.0	16.63
682.0	14.08
683.0	16.01
684.0	13.48
685.0	9.829
686.0	12.94
687.0	16.14
