Sample:	'wa-1(EM)
File name:	60.FDS
Run Date:	'18:12:11, 07/11/2024
Operator:	WXH
Comment:	'

Instrument
Model:	F-4600 FL Spectrophotometer
Serial Number:	3080-002
ROM Version:	5J24000 02

Instrument Parameters
Measurement type:	Wavelength scan
Scan mode:	Emission
Data mode:	Fluorescence
EX WL:	460.0 nm
EM  Start WL:	480.0 nm
EM  End WL:	780.0 nm
Scan speed:	1200 nm/min
Delay:	0.0 s
EX Slit:	2.5 nm
EM Slit:	2.5 nm
PMT Voltage:	600 V
Response:	Auto 
Corrected spectra:	Off
Shutter control:	On

Peak integration
Integration method:	Rectangular
Sensitivity:	1
Threshold:	1.000

Peaks
No.	Valley(nm)	Valley(Data)
1	510.4	309.0
2	514.4	315.6
3	518.2	305.3
4	521.2	272.2
5	523.8	276.7
6	526.8	251.3
7	531.4	232.9
8	533.6	219.5
9	536.6	207.6
10	543.8	168.2
11	552.8	117.9
12	554.6	119.5
13	559.0	100.8
14	565.8	76.56
15	571.2	59.10
16	577.6	56.77
17	580.2	50.54
18	582.4	44.85
19	585.2	39.07
20	590.0	36.04
21	593.2	32.81
22	595.6	29.62
23	598.6	29.94
24	604.8	19.99
25	607.2	24.14
26	613.0	17.21
27	617.4	17.69
28	620.0	15.90
29	623.0	14.79
30	629.0	12.94
31	632.4	10.26
32	636.4	12.78
33	644.0	9.865
34	647.6	9.545
35	649.2	10.12
36	654.2	12.21
37	656.2	9.637
38	660.2	8.671
39	664.4	8.185
40	668.8	4.963
41	671.2	8.720
42	674.0	7.190
43	676.4	9.755
44	678.0	8.662
45	683.6	8.067
46	686.0	7.909
47	689.2	7.154
48	691.8	7.069
49	694.8	7.498
50	696.2	6.146
51	703.0	5.612
52	706.4	9.212
53	708.0	8.331
54	709.8	8.383
55	712.2	7.195
56	716.8	6.907
57	720.0	7.269
58	723.8	7.745
59	726.0	6.814
60	728.4	7.464
61	732.2	6.484
62	735.0	8.271
63	738.2	7.157
64	741.0	9.310
65	742.8	7.072
66	744.6	5.779
67	748.0	6.815
68	750.6	9.494
69	754.4	6.658
70	757.8	7.848
71	759.6	8.109
72	764.6	7.006
73	767.0	7.016
74	772.8	8.178
75	778.0	6.648

Data Points
nm	Data
480.0	20.42
481.0	18.46
482.0	19.57
483.0	25.33
484.0	21.52
485.0	29.70
486.0	31.92
487.0	40.15
488.0	42.98
489.0	57.66
490.0	59.58
491.0	72.68
492.0	74.95
493.0	97.23
494.0	109.9
495.0	118.9
496.0	142.9
497.0	162.1
498.0	173.5
499.0	191.3
500.0	208.1
501.0	236.6
502.0	243.5
503.0	276.7
504.0	282.8
505.0	299.1
506.0	306.9
507.0	314.8
508.0	313.1
509.0	342.2
510.0	311.0
511.0	315.3
512.0	321.6
513.0	323.5
514.0	323.0
515.0	334.3
516.0	318.0
517.0	321.3
518.0	307.1
519.0	309.5
520.0	296.0
521.0	279.0
522.0	296.1
523.0	288.3
524.0	282.4
525.0	287.0
526.0	265.1
527.0	257.2
528.0	276.4
529.0	259.2
530.0	253.7
531.0	243.9
532.0	237.4
533.0	236.0
534.0	236.6
535.0	226.9
536.0	227.1
537.0	208.2
538.0	215.2
539.0	207.9
540.0	196.3
541.0	189.4
542.0	193.1
543.0	175.5
544.0	169.0
545.0	173.9
546.0	166.4
547.0	159.0
548.0	158.8
549.0	150.1
550.0	156.2
551.0	138.3
552.0	126.6
553.0	123.5
554.0	129.1
555.0	125.2
556.0	121.2
557.0	111.6
558.0	107.4
559.0	100.8
560.0	105.9
561.0	102.0
562.0	98.26
563.0	99.12
564.0	86.53
565.0	90.77
566.0	77.01
567.0	81.01
568.0	77.83
569.0	75.97
570.0	68.61
571.0	62.23
572.0	65.31
573.0	72.45
574.0	70.84
575.0	61.07
576.0	59.83
577.0	60.78
578.0	62.16
579.0	63.85
580.0	51.66
581.0	56.17
582.0	51.87
583.0	49.88
584.0	46.42
585.0	41.04
586.0	42.70
587.0	56.11
588.0	49.02
589.0	36.86
590.0	36.04
591.0	41.92
592.0	42.12
593.0	35.51
594.0	36.84
595.0	30.98
596.0	33.76
597.0	32.57
598.0	31.77
599.0	30.81
600.0	33.58
601.0	33.89
602.0	25.39
603.0	27.28
604.0	22.87
605.0	21.50
606.0	29.14
607.0	24.81
608.0	30.16
609.0	25.89
610.0	22.11
611.0	20.37
612.0	23.71
613.0	17.21
614.0	25.40
615.0	23.56
616.0	20.44
617.0	19.46
618.0	22.32
619.0	18.87
620.0	15.90
621.0	17.79
622.0	17.77
623.0	14.79
624.0	21.28
625.0	15.43
626.0	17.00
627.0	15.21
628.0	15.20
629.0	12.94
630.0	16.26
631.0	17.22
632.0	12.09
633.0	15.80
634.0	15.53
635.0	13.50
636.0	12.85
637.0	12.36
638.0	18.96
639.0	16.21
640.0	16.30
641.0	18.72
642.0	15.97
643.0	14.65
644.0	9.865
645.0	18.14
646.0	16.34
647.0	12.16
648.0	14.14
649.0	11.10
650.0	11.74
651.0	13.80
652.0	16.91
653.0	12.40
654.0	12.95
655.0	14.51
656.0	9.857
657.0	10.60
658.0	15.97
659.0	14.03
660.0	8.886
661.0	14.13
662.0	11.61
663.0	10.51
664.0	8.208
665.0	8.963
666.0	10.75
667.0	10.86
668.0	9.405
669.0	6.702
670.0	10.16
671.0	11.21
672.0	11.34
673.0	14.36
674.0	7.190
675.0	11.74
676.0	11.12
677.0	11.28
678.0	8.662
679.0	13.29
680.0	11.90
681.0	13.03
682.0	10.65
683.0	11.12
684.0	9.513
685.0	11.71
686.0	7.909
687.0	10.56
688.0	7.467
689.0	8.134
690.0	9.359
691.0	8.257
692.0	7.133
693.0	10.53
694.0	9.713
695.0	9.013
696.0	9.400
697.0	11.15
698.0	9.624
699.0	10.59
700.0	13.02
701.0	9.554
702.0	7.834
703.0	5.612
704.0	6.827
705.0	10.37
706.0	9.469
707.0	10.63
708.0	8.331
709.0	13.94
710.0	9.783
711.0	11.80
712.0	9.447
713.0	8.976
714.0	11.05
715.0	10.55
716.0	9.186
717.0	8.261
718.0	11.93
719.0	12.96
720.0	7.269
721.0	13.24
722.0	11.33
723.0	8.476
724.0	11.22
725.0	10.78
726.0	6.814
727.0	8.321
728.0	8.094
729.0	9.894
730.0	9.698
731.0	10.76
732.0	6.907
733.0	11.07
734.0	12.97
735.0	8.271
736.0	14.00
737.0	7.927
738.0	8.674
739.0	10.01
740.0	11.86
741.0	9.310
742.0	9.387
743.0	8.375
744.0	9.153
745.0	9.358
746.0	8.540
747.0	8.996
748.0	6.815
749.0	10.27
750.0	13.45
751.0	10.49
752.0	10.60
753.0	8.808
754.0	7.435
755.0	7.540
756.0	7.756
757.0	9.498
758.0	9.461
759.0	11.01
760.0	10.11
761.0	7.337
762.0	8.947
763.0	8.705
764.0	7.359
765.0	9.794
766.0	8.106
767.0	7.016
768.0	9.437
769.0	11.79
770.0	9.685
771.0	10.53
772.0	11.21
773.0	12.13
774.0	14.62
775.0	14.14
776.0	10.15
777.0	9.142
778.0	6.648
779.0	7.090
780.0	7.918

Sample:	'wa-2(EM)
File name:	60.FDS
Run Date:	'18:12:41, 07/11/2024
Operator:	WXH
Comment:	'

Instrument
Model:	F-4600 FL Spectrophotometer
Serial Number:	3080-002
ROM Version:	5J24000 02

Instrument Parameters
Measurement type:	Wavelength scan
Scan mode:	Emission
Data mode:	Fluorescence
EX WL:	460.0 nm
EM  Start WL:	480.0 nm
EM  End WL:	780.0 nm
Scan speed:	1200 nm/min
Delay:	0.0 s
EX Slit:	2.5 nm
EM Slit:	2.5 nm
PMT Voltage:	600 V
Response:	Auto 
Corrected spectra:	Off
Shutter control:	On

Peak integration
Integration method:	Rectangular
Sensitivity:	1
Threshold:	1.000

Peaks
No.	Valley(nm)	Valley(Data)
1	483.2	19.85
2	501.8	217.2
3	507.2	298.6
4	511.6	311.3
5	514.6	318.8
6	516.6	298.7
7	521.0	284.3
8	526.8	243.9
9	534.8	210.2
10	542.2	188.2
11	545.0	149.6
12	552.8	124.3
13	560.8	94.69
14	565.6	82.53
15	569.6	66.08
16	572.2	62.09
17	574.4	60.71
18	582.8	44.23
19	585.4	40.74
20	589.6	36.09
21	592.8	34.94
22	599.8	22.34
23	603.8	18.84
24	605.6	20.52
25	611.4	21.64
26	615.6	14.70
27	617.6	15.36
28	620.6	14.54
29	622.4	13.76
30	624.8	13.45
31	628.4	13.52
32	632.6	14.89
33	637.2	10.10
34	640.8	11.80
35	642.8	12.32
36	646.4	9.837
37	650.8	7.975
38	653.8	8.310
39	656.2	7.958
40	659.2	8.290
41	664.6	7.745
42	667.8	7.171
43	671.0	7.654
44	673.8	6.679
45	678.4	7.935
46	682.2	6.911
47	684.6	9.099
48	687.0	8.749
49	690.2	6.747
50	695.2	8.866
51	699.4	8.010
52	704.8	10.35
53	708.6	7.676
54	711.6	6.933
55	716.4	6.497
56	719.4	8.055
57	722.0	6.390
58	728.0	5.839
59	737.2	8.126
60	740.8	7.777
61	744.6	8.041
62	748.0	7.120
63	751.2	7.389
64	753.8	6.919
65	757.2	4.375
66	760.2	4.603
67	766.2	8.543
68	770.6	6.190
69	771.8	9.434
70	774.0	7.629
71	776.2	7.837
72	780.0	10.76

Data Points
nm	Data
480.0	14.26
481.0	22.33
482.0	27.04
483.0	21.70
484.0	23.22
485.0	29.74
486.0	44.06
487.0	46.27
488.0	43.45
489.0	59.40
490.0	60.92
491.0	65.72
492.0	81.24
493.0	97.09
494.0	116.8
495.0	126.4
496.0	152.0
497.0	160.0
498.0	181.4
499.0	190.0
500.0	228.6
501.0	227.9
502.0	229.6
503.0	264.3
504.0	277.5
505.0	295.2
506.0	317.2
507.0	304.6
508.0	316.3
509.0	326.3
510.0	333.8
511.0	325.7
512.0	331.7
513.0	335.3
514.0	328.4
515.0	322.7
516.0	310.7
517.0	311.4
518.0	305.4
519.0	305.0
520.0	304.1
521.0	284.3
522.0	293.2
523.0	278.9
524.0	290.3
525.0	276.8
526.0	256.9
527.0	252.0
528.0	252.3
529.0	275.2
530.0	265.0
531.0	258.3
532.0	243.7
533.0	239.4
534.0	224.6
535.0	212.3
536.0	217.8
537.0	209.1
538.0	208.9
539.0	206.8
540.0	208.2
541.0	194.5
542.0	198.4
543.0	188.4
544.0	178.8
545.0	149.6
546.0	160.9
547.0	151.1
548.0	150.7
549.0	144.1
550.0	138.3
551.0	139.3
552.0	136.3
553.0	125.6
554.0	126.8
555.0	131.9
556.0	114.2
557.0	109.5
558.0	102.9
559.0	99.88
560.0	105.6
561.0	100.7
562.0	93.22
563.0	90.28
564.0	92.61
565.0	89.35
566.0	86.11
567.0	89.28
568.0	83.66
569.0	75.69
570.0	74.89
571.0	77.09
572.0	69.51
573.0	65.76
574.0	62.68
575.0	69.77
576.0	68.84
577.0	64.31
578.0	62.87
579.0	54.50
580.0	57.31
581.0	53.66
582.0	53.77
583.0	46.77
584.0	44.84
585.0	43.84
586.0	47.22
587.0	46.57
588.0	40.66
589.0	38.16
590.0	39.95
591.0	41.54
592.0	37.90
593.0	35.51
594.0	45.42
595.0	39.94
596.0	37.72
597.0	35.91
598.0	30.61
599.0	24.25
600.0	24.30
601.0	29.03
602.0	34.09
603.0	28.08
604.0	22.20
605.0	29.35
606.0	24.74
607.0	21.27
608.0	28.66
609.0	26.44
610.0	21.46
611.0	23.04
612.0	22.69
613.0	24.72
614.0	18.49
615.0	19.39
616.0	16.38
617.0	22.91
618.0	16.45
619.0	19.20
620.0	19.41
621.0	17.71
622.0	17.28
623.0	16.39
624.0	13.25
625.0	14.97
626.0	17.43
627.0	17.07
628.0	19.54
629.0	13.82
630.0	18.04
631.0	18.12
632.0	15.70
633.0	15.46
634.0	20.17
635.0	13.90
636.0	14.92
637.0	10.65
638.0	11.36
639.0	17.30
640.0	15.03
641.0	12.73
642.0	14.35
643.0	15.04
644.0	15.24
645.0	13.98
646.0	13.76
647.0	10.27
648.0	12.05
649.0	17.65
650.0	12.88
651.0	8.021
652.0	8.983
653.0	11.27
654.0	10.16
655.0	11.95
656.0	10.46
657.0	12.48
658.0	12.56
659.0	10.01
660.0	9.261
661.0	15.39
662.0	11.27
663.0	9.664
664.0	9.097
665.0	12.19
666.0	11.76
667.0	11.46
668.0	8.106
669.0	14.77
670.0	11.19
671.0	7.654
672.0	11.38
673.0	12.12
674.0	9.364
675.0	11.77
676.0	12.84
677.0	12.04
678.0	9.529
679.0	11.17
680.0	10.32
681.0	9.722
682.0	7.677
683.0	10.55
684.0	12.43
685.0	11.89
686.0	13.85
687.0	8.749
688.0	9.687
689.0	8.017
690.0	7.946
691.0	10.27
692.0	9.505
693.0	10.86
694.0	11.62
695.0	9.930
696.0	10.21
697.0	8.989
698.0	9.063
699.0	9.351
700.0	9.093
701.0	11.29
702.0	11.77
703.0	12.10
704.0	10.36
705.0	11.61
706.0	13.55
707.0	11.34
708.0	11.58
709.0	9.223
710.0	15.38
711.0	8.136
712.0	12.81
713.0	9.593
714.0	11.60
715.0	7.830
716.0	7.312
717.0	10.23
718.0	12.85
719.0	12.23
720.0	8.379
721.0	12.09
722.0	6.390
723.0	8.935
724.0	14.30
725.0	11.78
726.0	10.21
727.0	7.988
728.0	5.839
729.0	9.451
730.0	7.966
731.0	12.82
732.0	10.08
733.0	13.67
734.0	11.19
735.0	10.83
736.0	10.70
737.0	8.616
738.0	10.35
739.0	12.37
740.0	10.17
741.0	9.256
742.0	13.88
743.0	12.94
744.0	11.63
745.0	8.251
746.0	10.93
747.0	7.752
748.0	7.120
749.0	11.16
750.0	10.35
751.0	7.397
752.0	10.40
753.0	11.00
754.0	8.369
755.0	9.992
756.0	10.57
757.0	5.985
758.0	9.011
759.0	8.470
760.0	6.805
761.0	6.517
762.0	7.528
763.0	7.664
764.0	8.459
765.0	8.943
766.0	10.03
767.0	9.248
768.0	9.328
769.0	10.90
770.0	8.209
771.0	10.55
772.0	9.548
773.0	10.44
774.0	7.629
775.0	8.436
776.0	10.11
777.0	12.62
778.0	12.46
779.0	10.81
780.0	10.76

Sample:	'wa-3(EM)
File name:	60.FDS
Run Date:	'18:13:11, 07/11/2024
Operator:	WXH
Comment:	'

Instrument
Model:	F-4600 FL Spectrophotometer
Serial Number:	3080-002
ROM Version:	5J24000 02

Instrument Parameters
Measurement type:	Wavelength scan
Scan mode:	Emission
Data mode:	Fluorescence
EX WL:	460.0 nm
EM  Start WL:	480.0 nm
EM  End WL:	780.0 nm
Scan speed:	1200 nm/min
Delay:	0.0 s
EX Slit:	2.5 nm
EM Slit:	2.5 nm
PMT Voltage:	600 V
Response:	Auto 
Corrected spectra:	Off
Shutter control:	On

Peak integration
Integration method:	Rectangular
Sensitivity:	1
Threshold:	1.000

Peaks
No.	Valley(nm)	Valley(Data)
1	482.2	18.50
2	511.0	305.1
3	513.8	314.5
4	518.0	290.6
5	520.6	302.5
6	526.0	253.6
7	528.4	246.5
8	532.0	234.2
9	534.6	225.3
10	538.2	201.0
11	542.6	173.6
12	544.6	168.7
13	549.8	142.8
14	551.8	136.3
15	553.6	123.5
16	561.2	91.22
17	567.4	75.89
18	574.0	57.04
19	577.6	53.83
20	582.2	41.94
21	584.4	40.34
22	587.2	36.40
23	589.2	34.02
24	592.8	32.27
25	595.8	27.83
26	602.4	22.72
27	606.6	20.57
28	609.8	18.97
29	614.4	16.23
30	617.0	12.47
31	623.6	12.24
32	627.8	14.48
33	629.6	12.08
34	633.8	13.21
35	635.2	12.88
36	639.0	12.07
37	643.6	6.650
38	652.2	4.447
39	657.0	7.555
40	660.4	9.984
41	662.4	9.710
42	666.8	10.94
43	670.6	7.947
44	675.2	8.114
45	679.2	7.209
46	685.6	7.796
47	692.8	9.028
48	695.6	8.148
49	697.4	5.242
50	699.6	4.990
51	703.2	7.765
52	707.0	7.519
53	708.2	6.625
54	712.8	4.998
55	717.4	6.781
56	720.4	9.155
57	722.8	5.744
58	726.0	8.108
59	729.6	8.968
60	736.8	5.855
61	740.6	6.728
62	743.2	7.334
63	745.4	8.771
64	750.4	7.013
65	752.8	5.417
66	756.0	6.364
67	760.0	7.911
68	765.0	7.359
69	768.2	9.606
70	773.2	6.915
71	774.8	6.884
72	777.0	8.737
73	780.0	10.94

Data Points
nm	Data
480.0	18.78
481.0	23.54
482.0	24.13
483.0	25.71
484.0	26.91
485.0	34.23
486.0	38.14
487.0	39.12
488.0	45.86
489.0	47.27
490.0	67.27
491.0	74.16
492.0	88.28
493.0	95.45
494.0	99.17
495.0	109.0
496.0	143.0
497.0	152.8
498.0	181.8
499.0	195.0
500.0	212.7
501.0	220.4
502.0	251.5
503.0	264.3
504.0	285.8
505.0	294.7
506.0	291.2
507.0	310.8
508.0	311.1
509.0	316.6
510.0	330.7
511.0	305.1
512.0	319.1
513.0	326.1
514.0	327.3
515.0	317.9
516.0	313.0
517.0	314.0
518.0	290.6
519.0	304.2
520.0	306.5
521.0	310.8
522.0	302.3
523.0	286.7
524.0	284.5
525.0	283.3
526.0	253.6
527.0	265.5
528.0	258.4
529.0	258.1
530.0	248.9
531.0	233.7
532.0	234.2
533.0	245.9
534.0	230.1
535.0	230.3
536.0	213.9
537.0	226.4
538.0	202.1
539.0	205.6
540.0	199.3
541.0	183.8
542.0	184.8
543.0	189.0
544.0	178.8
545.0	175.0
546.0	175.0
547.0	162.2
548.0	156.5
549.0	149.6
550.0	154.0
551.0	162.5
552.0	140.4
553.0	143.3
554.0	126.8
555.0	138.2
556.0	127.0
557.0	111.9
558.0	118.2
559.0	108.5
560.0	98.77
561.0	95.01
562.0	109.6
563.0	93.29
564.0	88.49
565.0	88.80
566.0	88.76
567.0	76.58
568.0	80.38
569.0	78.27
570.0	76.15
571.0	71.93
572.0	67.76
573.0	60.12
574.0	57.04
575.0	58.65
576.0	58.50
577.0	58.23
578.0	58.32
579.0	60.77
580.0	46.85
581.0	53.08
582.0	43.70
583.0	50.22
584.0	45.33
585.0	43.76
586.0	50.15
587.0	42.02
588.0	36.84
589.0	36.33
590.0	40.71
591.0	46.50
592.0	38.69
593.0	32.56
594.0	35.28
595.0	32.90
596.0	30.90
597.0	29.64
598.0	36.93
599.0	32.62
600.0	32.63
601.0	27.04
602.0	28.28
603.0	29.31
604.0	24.80
605.0	26.55
606.0	23.91
607.0	20.89
608.0	23.96
609.0	26.03
610.0	20.31
611.0	24.29
612.0	22.20
613.0	23.09
614.0	20.68
615.0	19.08
616.0	20.85
617.0	12.47
618.0	21.31
619.0	19.05
620.0	16.07
621.0	14.23
622.0	13.35
623.0	17.09
624.0	14.01
625.0	15.78
626.0	17.32
627.0	20.13
628.0	15.31
629.0	16.83
630.0	12.25
631.0	15.45
632.0	18.74
633.0	17.23
634.0	15.61
635.0	16.42
636.0	17.82
637.0	17.49
638.0	16.18
639.0	12.07
640.0	16.34
641.0	12.28
642.0	11.90
643.0	10.57
644.0	7.964
645.0	8.988
646.0	19.44
647.0	12.85
648.0	13.79
649.0	11.98
650.0	11.54
651.0	10.40
652.0	4.848
653.0	14.68
654.0	14.97
655.0	15.65
656.0	12.68
657.0	7.555
658.0	13.19
659.0	12.88
660.0	10.97
661.0	12.75
662.0	12.18
663.0	11.93
664.0	9.851
665.0	12.41
666.0	11.96
667.0	11.03
668.0	12.45
669.0	13.86
670.0	8.492
671.0	8.935
672.0	11.00
673.0	10.63
674.0	10.55
675.0	10.39
676.0	10.36
677.0	10.02
678.0	8.419
679.0	8.341
680.0	9.471
681.0	9.487
682.0	11.19
683.0	15.18
684.0	10.62
685.0	9.668
686.0	9.120
687.0	13.13
688.0	11.30
689.0	11.68
690.0	13.21
691.0	10.90
692.0	10.92
693.0	11.08
694.0	13.48
695.0	10.79
696.0	12.65
697.0	9.391
698.0	7.847
699.0	7.233
700.0	6.365
701.0	11.45
702.0	8.901
703.0	10.72
704.0	13.19
705.0	10.65
706.0	11.57
707.0	7.519
708.0	8.918
709.0	7.553
710.0	9.878
711.0	11.94
712.0	10.00
713.0	5.547
714.0	10.15
715.0	8.777
716.0	9.128
717.0	8.684
718.0	10.14
719.0	12.81
720.0	11.50
721.0	11.25
722.0	14.86
723.0	7.044
724.0	10.17
725.0	11.84
726.0	8.108
727.0	12.33
728.0	11.72
729.0	10.59
730.0	14.46
731.0	11.15
732.0	17.35
733.0	11.27
734.0	10.31
735.0	9.396
736.0	6.928
737.0	7.247
738.0	11.23
739.0	8.617
740.0	8.831
741.0	9.018
742.0	11.24
743.0	9.467
744.0	12.15
745.0	12.22
746.0	11.69
747.0	13.80
748.0	13.22
749.0	11.99
750.0	8.476
751.0	9.969
752.0	7.355
753.0	5.742
754.0	10.65
755.0	10.04
756.0	6.364
757.0	9.550
758.0	9.621
759.0	11.96
760.0	7.911
761.0	13.39
762.0	10.57
763.0	10.50
764.0	8.273
765.0	7.359
766.0	10.99
767.0	11.84
768.0	11.02
769.0	10.07
770.0	11.93
771.0	12.65
772.0	13.90
773.0	7.442
774.0	11.10
775.0	7.606
776.0	12.78
777.0	8.737
778.0	10.28
779.0	8.648
780.0	10.94

Sample:	'wa-4(EM)
File name:	60.FDS
Run Date:	'18:13:41, 07/11/2024
Operator:	WXH
Comment:	'

Instrument
Model:	F-4600 FL Spectrophotometer
Serial Number:	3080-002
ROM Version:	5J24000 02

Instrument Parameters
Measurement type:	Wavelength scan
Scan mode:	Emission
Data mode:	Fluorescence
EX WL:	460.0 nm
EM  Start WL:	480.0 nm
EM  End WL:	780.0 nm
Scan speed:	1200 nm/min
Delay:	0.0 s
EX Slit:	2.5 nm
EM Slit:	2.5 nm
PMT Voltage:	600 V
Response:	Auto 
Corrected spectra:	Off
Shutter control:	On

Peak integration
Integration method:	Rectangular
Sensitivity:	1
Threshold:	1.000

Peaks
No.	Valley(nm)	Valley(Data)
1	490.6	66.90
2	505.0	269.4
3	509.8	311.9
4	514.2	306.5
5	516.4	314.3
6	524.4	268.8
7	527.2	248.6
8	534.4	216.0
9	539.4	185.6
10	544.6	170.2
11	546.8	150.6
12	557.8	104.3
13	565.2	80.65
14	570.2	71.81
15	577.2	54.40
16	583.2	43.33
17	585.0	43.42
18	589.0	33.67
19	592.0	36.37
20	598.2	27.73
21	601.0	25.98
22	603.8	21.87
23	610.4	19.82
24	614.0	17.78
25	616.2	15.96
26	619.6	13.80
27	622.2	13.62
28	623.8	13.75
29	629.2	14.49
30	632.2	13.63
31	634.2	11.96
32	638.6	10.45
33	641.0	9.675
34	645.0	11.51
35	650.4	10.61
36	653.6	9.635
37	655.4	12.01
38	659.4	7.201
39	663.4	10.36
40	666.0	6.814
41	669.6	7.427
42	672.8	9.198
43	675.8	8.896
44	679.2	4.696
45	683.0	9.838
46	684.6	7.858
47	690.2	7.299
48	697.2	7.452
49	701.4	7.114
50	704.8	7.507
51	707.2	7.784
52	711.0	8.500
53	716.6	6.960
54	719.8	6.024
55	721.4	7.045
56	724.8	6.881
57	728.0	7.396
58	730.8	5.430
59	732.8	8.024
60	739.4	7.643
61	746.2	7.137
62	748.2	7.138
63	752.2	5.886
64	754.0	8.464
65	756.8	6.134
66	758.0	7.046
67	760.2	7.575
68	763.8	6.957
69	768.2	5.832
70	771.8	6.618
71	777.0	7.990
72	780.0	9.546

Data Points
nm	Data
480.0	12.98
481.0	18.65
482.0	27.42
483.0	27.61
484.0	30.74
485.0	37.80
486.0	35.74
487.0	45.15
488.0	52.70
489.0	58.33
490.0	77.23
491.0	73.21
492.0	83.96
493.0	88.24
494.0	106.8
495.0	122.7
496.0	131.1
497.0	150.9
498.0	177.6
499.0	189.3
500.0	216.4
501.0	241.8
502.0	255.4
503.0	267.2
504.0	281.7
505.0	269.4
506.0	304.8
507.0	327.3
508.0	316.1
509.0	321.5
510.0	322.8
511.0	319.7
512.0	340.9
513.0	332.2
514.0	313.0
515.0	331.0
516.0	321.4
517.0	333.5
518.0	318.0
519.0	303.7
520.0	308.6
521.0	298.8
522.0	285.3
523.0	283.3
524.0	280.0
525.0	276.8
526.0	272.1
527.0	253.1
528.0	259.5
529.0	260.3
530.0	260.9
531.0	255.0
532.0	242.6
533.0	229.6
534.0	217.2
535.0	224.5
536.0	214.3
537.0	217.4
538.0	202.9
539.0	189.8
540.0	195.5
541.0	210.6
542.0	190.4
543.0	179.2
544.0	179.6
545.0	181.8
546.0	180.9
547.0	156.2
548.0	161.4
549.0	149.4
550.0	131.1
551.0	134.1
552.0	137.5
553.0	134.5
554.0	138.2
555.0	118.6
556.0	130.5
557.0	115.4
558.0	104.9
559.0	107.7
560.0	103.4
561.0	98.03
562.0	99.55
563.0	94.57
564.0	89.64
565.0	86.73
566.0	82.72
567.0	79.41
568.0	83.14
569.0	79.46
570.0	74.31
571.0	73.49
572.0	75.35
573.0	69.56
574.0	71.49
575.0	70.50
576.0	63.97
577.0	57.10
578.0	56.73
579.0	60.07
580.0	55.64
581.0	56.73
582.0	52.81
583.0	43.62
584.0	46.65
585.0	43.42
586.0	51.29
587.0	41.57
588.0	37.41
589.0	33.67
590.0	43.17
591.0	40.30
592.0	36.37
593.0	40.51
594.0	46.24
595.0	36.50
596.0	33.73
597.0	32.47
598.0	33.65
599.0	32.56
600.0	28.83
601.0	25.98
602.0	31.90
603.0	27.97
604.0	22.24
605.0	28.17
606.0	27.37
607.0	22.95
608.0	27.20
609.0	21.83
610.0	22.85
611.0	20.40
612.0	24.54
613.0	22.76
614.0	17.78
615.0	21.93
616.0	18.43
617.0	17.97
618.0	18.95
619.0	18.53
620.0	16.44
621.0	17.84
622.0	14.67
623.0	21.19
624.0	16.39
625.0	16.46
626.0	14.95
627.0	17.08
628.0	19.46
629.0	15.32
630.0	19.04
631.0	15.85
632.0	16.08
633.0	20.97
634.0	13.63
635.0	13.49
636.0	13.95
637.0	12.49
638.0	11.17
639.0	10.88
640.0	15.63
641.0	9.675
642.0	15.71
643.0	13.46
644.0	16.92
645.0	11.51
646.0	14.41
647.0	20.29
648.0	13.52
649.0	13.62
650.0	11.17
651.0	15.00
652.0	13.36
653.0	14.18
654.0	11.22
655.0	17.65
656.0	12.37
657.0	13.71
658.0	11.85
659.0	9.756
660.0	7.912
661.0	14.95
662.0	11.49
663.0	12.78
664.0	15.48
665.0	8.917
666.0	6.814
667.0	12.49
668.0	9.754
669.0	9.804
