Sample:	'wa-1(EM)
File name:	80.FDS
Run Date:	'17:53:05, 07/11/2024
Operator:	WXH
Comment:	'

Instrument
Model:	F-4600 FL Spectrophotometer
Serial Number:	3080-002
ROM Version:	5J24000 02

Instrument Parameters
Measurement type:	Wavelength scan
Scan mode:	Emission
Data mode:	Fluorescence
EX WL:	460.0 nm
EM  Start WL:	480.0 nm
EM  End WL:	780.0 nm
Scan speed:	1200 nm/min
Delay:	0.0 s
EX Slit:	2.5 nm
EM Slit:	2.5 nm
PMT Voltage:	600 V
Response:	Auto 
Corrected spectra:	Off
Shutter control:	On

Peak integration
Integration method:	Rectangular
Sensitivity:	1
Threshold:	1.000

Peaks
No.	Valley(nm)	Valley(Data)
1	508.8	549.7
2	511.4	564.6
3	518.0	502.7
4	520.8	508.1
5	523.2	459.9
6	527.2	428.3
7	531.2	410.2
8	544.2	284.1
9	554.8	195.4
10	559.0	160.2
11	563.2	142.8
12	567.8	121.6
13	574.4	100.4
14	577.2	89.05
15	580.6	79.08
16	585.6	66.70
17	589.0	58.82
18	594.0	45.90
19	599.8	39.91
20	604.8	32.94
21	609.2	30.67
22	612.8	25.62
23	615.2	28.64
24	618.4	24.56
25	621.8	18.02
26	626.6	15.72
27	629.8	16.29
28	634.6	14.78
29	636.6	15.22
30	639.2	13.60
31	645.4	12.18
32	646.8	12.15
33	650.4	11.55
34	654.8	11.85
35	657.2	12.64
36	659.8	12.29
37	663.8	9.680
38	669.6	7.849
39	672.2	8.513
40	676.4	9.659
41	679.4	11.12
42	684.2	6.908
43	688.2	8.413
44	692.6	9.427
45	696.0	5.395
46	699.6	6.503
47	702.4	5.790
48	704.4	6.101
49	707.8	6.038
50	709.4	8.685
51	712.0	6.900
52	715.0	4.860
53	719.6	7.864
54	721.2	6.286
55	724.8	5.794
56	728.0	5.274
57	731.2	7.717
58	734.8	7.575
59	736.6	6.834
60	740.2	6.340
61	742.2	7.056
62	746.4	6.412
63	749.6	6.311
64	757.2	7.196
65	760.8	6.171
66	762.4	5.716
67	766.6	9.322
68	770.4	6.667
69	775.0	5.301
70	778.6	7.166

Data Points
nm	Data
480.0	32.51
481.0	20.38
482.0	24.51
483.0	26.20
484.0	35.29
485.0	35.07
486.0	45.23
487.0	53.83
488.0	66.98
489.0	74.94
490.0	96.54
491.0	104.9
492.0	139.0
493.0	144.5
494.0	176.7
495.0	193.9
496.0	240.7
497.0	274.6
498.0	291.3
499.0	311.4
500.0	358.0
501.0	370.8
502.0	433.3
503.0	462.7
504.0	489.5
505.0	495.7
506.0	531.7
507.0	566.1
508.0	554.3
509.0	557.8
510.0	564.6
511.0	584.0
512.0	567.2
513.0	569.9
514.0	591.6
515.0	580.9
516.0	560.9
517.0	553.8
518.0	502.7
519.0	533.4
520.0	513.2
521.0	541.0
522.0	506.6
523.0	464.0
524.0	483.7
525.0	469.9
526.0	463.5
527.0	430.2
528.0	449.6
529.0	420.3
530.0	406.4
531.0	419.8
532.0	427.1
533.0	417.6
534.0	415.7
535.0	362.8
536.0	369.0
537.0	376.5
538.0	361.5
539.0	356.0
540.0	339.2
541.0	326.9
542.0	310.9
543.0	287.5
544.0	292.0
545.0	290.7
546.0	291.0
547.0	263.7
548.0	266.6
549.0	241.4
550.0	232.6
551.0	235.4
552.0	240.3
553.0	216.2
554.0	224.9
555.0	201.3
556.0	208.8
557.0	198.0
558.0	192.3
559.0	160.2
560.0	168.5
561.0	163.1
562.0	162.1
563.0	146.8
564.0	163.7
565.0	140.2
566.0	141.2
567.0	123.1
568.0	124.2
569.0	130.4
570.0	118.6
571.0	123.2
572.0	115.8
573.0	101.9
574.0	106.7
575.0	109.4
576.0	100.2
577.0	95.14
578.0	103.6
579.0	93.37
580.0	88.74
581.0	87.10
582.0	98.64
583.0	92.59
584.0	75.29
585.0	74.84
586.0	67.38
587.0	72.84
588.0	70.40
589.0	58.82
590.0	67.81
591.0	68.19
592.0	56.97
593.0	49.45
594.0	45.90
595.0	59.96
596.0	53.18
597.0	48.37
598.0	48.57
599.0	39.80
600.0	42.30
601.0	43.89
602.0	44.16
603.0	41.90
604.0	38.45
605.0	38.69
606.0	39.10
607.0	38.13
608.0	35.70
609.0	31.50
610.0	38.09
611.0	37.87
612.0	33.16
613.0	31.08
614.0	29.96
615.0	31.51
616.0	28.67
617.0	28.75
618.0	31.18
619.0	28.59
620.0	26.78
621.0	23.27
622.0	20.48
623.0	25.89
624.0	21.64
625.0	21.98
626.0	19.09
627.0	20.70
628.0	21.02
629.0	21.93
630.0	18.72
631.0	20.07
632.0	21.02
633.0	16.61
634.0	19.76
635.0	17.22
636.0	20.72
637.0	18.46
638.0	16.63
639.0	16.49
640.0	16.11
641.0	18.94
642.0	17.84
643.0	15.83
644.0	15.53
645.0	12.97
646.0	14.89
647.0	12.70
648.0	15.62
649.0	13.45
650.0	13.54
651.0	17.61
652.0	16.43
653.0	14.29
654.0	14.14
655.0	13.39
656.0	17.17
657.0	12.75
658.0	13.86
659.0	16.23
660.0	13.09
661.0	14.05
662.0	11.93
663.0	11.66
664.0	12.73
665.0	15.08
666.0	14.00
667.0	14.12
668.0	11.85
669.0	10.33
670.0	10.47
671.0	17.74
672.0	9.520
673.0	13.21
674.0	12.99
675.0	11.96
676.0	12.63
677.0	12.65
678.0	12.40
679.0	14.27
680.0	14.79
681.0	13.05
682.0	13.31
683.0	10.74
684.0	7.549
685.0	8.967
686.0	14.20
687.0	13.44
688.0	9.490
689.0	10.17
690.0	10.97
691.0	12.58
692.0	10.43
693.0	13.80
694.0	11.42
695.0	7.194
696.0	5.395
697.0	8.649
698.0	7.778
699.0	7.986
700.0	6.647
701.0	10.35
702.0	9.109
703.0	8.009
704.0	7.196
705.0	8.453
706.0	8.879
707.0	10.08
708.0	9.312
709.0	11.26
710.0	9.722
711.0	11.68
712.0	6.900
713.0	9.347
714.0	8.224
715.0	4.860
716.0	9.249
717.0	13.86
718.0	12.16
719.0	9.300
720.0	12.31
721.0	8.335
722.0	8.949
723.0	6.570
724.0	9.795
725.0	8.792
726.0	13.50
727.0	8.993
728.0	5.274
729.0	5.721
730.0	9.500
731.0	8.870
732.0	8.850
733.0	8.814
734.0	8.746
735.0	8.496
736.0	11.13
737.0	9.150
738.0	9.876
739.0	9.382
740.0	6.517
741.0	8.069
742.0	8.373
743.0	7.683
744.0	7.689
745.0	7.973
746.0	7.157
747.0	8.928
748.0	7.094
749.0	8.302
750.0	10.47
751.0	10.09
752.0	14.00
753.0	10.29
754.0	7.883
755.0	9.348
756.0	7.905
757.0	8.178
758.0	10.70
759.0	9.654
760.0	7.361
761.0	6.526
762.0	7.594
763.0	8.437
764.0	8.242
765.0	12.40
766.0	10.91
767.0	9.709
768.0	10.94
769.0	7.954
770.0	7.905
771.0	7.992
772.0	7.676
773.0	9.195
774.0	14.59
775.0	5.301
776.0	8.721
777.0	12.81
778.0	8.837
779.0	7.811
780.0	9.355

Sample:	'wa-2(EM)
File name:	80.FDS
Run Date:	'17:53:35, 07/11/2024
Operator:	WXH
Comment:	'

Instrument
Model:	F-4600 FL Spectrophotometer
Serial Number:	3080-002
ROM Version:	5J24000 02

Instrument Parameters
Measurement type:	Wavelength scan
Scan mode:	Emission
Data mode:	Fluorescence
EX WL:	460.0 nm
EM  Start WL:	480.0 nm
EM  End WL:	780.0 nm
Scan speed:	1200 nm/min
Delay:	0.0 s
EX Slit:	2.5 nm
EM Slit:	2.5 nm
PMT Voltage:	600 V
Response:	Auto 
Corrected spectra:	Off
Shutter control:	On

Peak integration
Integration method:	Rectangular
Sensitivity:	1
Threshold:	1.000

Peaks
No.	Valley(nm)	Valley(Data)
1	512.8	566.1
2	521.8	474.2
3	525.0	452.5
4	527.0	438.4
5	529.2	435.7
6	531.6	387.8
7	534.8	385.1
8	542.2	296.0
9	550.2	224.5
10	554.0	197.6
11	557.8	176.6
12	559.4	171.2
13	566.8	120.7
14	569.6	114.9
15	576.0	92.69
16	583.4	79.70
17	585.0	69.41
18	586.8	69.75
19	592.4	53.63
20	594.8	46.38
21	596.6	51.33
22	604.0	34.72
23	609.4	32.36
24	612.4	29.74
25	615.6	24.43
26	623.0	21.34
27	625.0	21.08
28	627.2	19.74
29	631.6	14.76
30	634.4	16.06
31	638.0	15.53
32	639.6	14.67
33	642.0	12.05
34	644.0	12.63
35	647.8	10.62
36	650.4	9.892
37	654.0	12.33
38	659.4	8.616
39	662.6	6.610
40	665.4	4.854
41	668.8	6.946
42	671.0	9.950
43	673.0	8.111
44	680.0	7.499
45	682.0	6.935
46	684.4	6.555
47	688.4	7.708
48	691.0	6.639
49	698.0	7.423
50	703.6	6.828
51	706.0	6.348
52	708.6	7.100
53	710.8	8.376
54	716.2	4.953
55	720.4	7.387
56	725.8	7.577
57	727.4	7.714
58	730.4	6.817
59	735.2	5.487
60	738.6	7.636
61	740.2	5.710
62	742.4	6.989
63	744.2	7.291
64	750.0	6.423
65	755.0	5.010
66	763.2	4.852
67	766.2	5.066
68	769.2	6.800
69	771.4	7.307
70	775.0	7.170
71	780.0	6.216

Data Points
nm	Data
480.0	28.20
481.0	24.34
482.0	29.49
483.0	24.41
484.0	32.37
485.0	44.13
486.0	52.13
487.0	51.58
488.0	58.35
489.0	78.75
490.0	94.66
491.0	117.8
492.0	131.3
493.0	152.1
494.0	160.6
495.0	197.3
496.0	248.7
497.0	256.8
498.0	296.9
499.0	340.6
500.0	387.4
501.0	400.1
502.0	432.5
503.0	451.0
504.0	461.9
505.0	498.6
506.0	510.7
507.0	553.9
508.0	578.6
509.0	613.5
510.0	581.3
511.0	583.2
512.0	593.7
513.0	578.6
514.0	561.6
515.0	566.1
516.0	533.8
517.0	523.2
518.0	525.0
519.0	521.5
520.0	525.0
521.0	504.0
522.0	475.6
523.0	490.3
524.0	486.3
525.0	452.5
526.0	482.6
527.0	438.4
528.0	446.5
529.0	437.7
530.0	447.3
531.0	414.6
532.0	402.1
533.0	410.9
534.0	387.7
535.0	398.0
536.0	384.1
537.0	378.3
538.0	355.4
539.0	356.0
540.0	325.1
541.0	334.6
542.0	307.2
543.0	310.4
544.0	305.2
545.0	292.4
546.0	289.5
547.0	273.9
548.0	271.9
549.0	245.1
550.0	238.7
551.0	252.3
552.0	233.9
553.0	215.1
554.0	197.6
555.0	212.6
556.0	191.4
557.0	196.1
558.0	179.7
559.0	178.5
560.0	177.6
561.0	172.3
562.0	151.5
563.0	165.3
564.0	148.1
565.0	140.0
566.0	121.7
567.0	124.0
568.0	127.2
569.0	123.5
570.0	124.2
571.0	123.5
572.0	125.1
573.0	116.6
574.0	96.34
575.0	101.8
576.0	92.69
577.0	104.1
578.0	99.58
579.0	88.31
580.0	87.15
581.0	86.27
582.0	85.00
583.0	87.77
584.0	89.48
585.0	69.41
586.0	76.21
587.0	72.53
588.0	77.07
589.0	69.14
590.0	63.21
591.0	64.93
592.0	55.86
593.0	59.72
594.0	56.83
595.0	51.17
596.0	60.97
597.0	56.39
598.0	49.71
599.0	47.91
600.0	46.23
601.0	41.90
602.0	45.15
603.0	35.42
604.0	34.72
605.0	34.47
606.0	40.30
607.0	38.82
608.0	35.94
609.0	36.45
610.0	44.13
611.0	39.07
612.0	34.52
613.0	35.91
614.0	32.43
615.0	27.85
616.0	31.24
617.0	29.66
618.0	31.39
619.0	22.30
620.0	25.54
621.0	31.37
622.0	23.24
623.0	21.34
624.0	22.79
625.0	21.08
626.0	22.19
627.0	20.27
628.0	24.01
629.0	26.10
630.0	23.53
631.0	19.75
632.0	20.45
633.0	20.38
634.0	18.39
635.0	17.20
636.0	18.49
637.0	17.30
638.0	15.53
639.0	17.91
640.0	17.48
641.0	19.21
642.0	12.05
643.0	13.94
644.0	12.63
645.0	13.65
646.0	13.11
647.0	12.88
648.0	12.64
649.0	16.94
650.0	13.12
651.0	15.66
652.0	16.80
653.0	14.85
654.0	12.33
655.0	14.08
656.0	14.70
657.0	13.42
658.0	11.17
659.0	11.61
660.0	14.79
661.0	11.82
662.0	9.613
663.0	8.587
664.0	11.55
665.0	10.02
666.0	11.13
667.0	13.35
668.0	14.35
669.0	8.010
670.0	10.04
671.0	9.950
672.0	11.12
673.0	8.111
674.0	12.08
675.0	13.25
676.0	12.16
677.0	14.41
678.0	9.414
679.0	7.387
680.0	7.499
681.0	12.50
682.0	6.935
683.0	11.17
684.0	10.03
685.0	7.150
686.0	11.60
687.0	10.33
688.0	9.266
689.0	11.03
690.0	8.491
691.0	6.639
692.0	8.170
693.0	10.36
694.0	11.39
695.0	14.07
696.0	9.615
697.0	8.067
698.0	7.423
699.0	9.944
700.0	9.852
701.0	11.87
702.0	8.939
703.0	8.627
704.0	8.766
705.0	11.94
706.0	6.348
707.0	8.693
708.0	9.945
709.0	9.339
710.0	12.39
711.0	9.350
712.0	9.832
713.0	10.52
714.0	10.12
715.0	7.589
716.0	6.858
717.0	8.126
718.0	11.90
719.0	11.05
720.0	9.642
721.0	8.840
722.0	8.556
723.0	10.16
724.0	14.14
725.0	10.24
726.0	9.481
727.0	10.37
728.0	11.04
729.0	11.06
730.0	9.341
731.0	11.13
732.0	9.648
733.0	10.12
734.0	10.17
735.0	5.683
736.0	8.891
737.0	12.24
738.0	7.747
739.0	10.57
740.0	6.655
741.0	8.775
742.0	7.994
743.0	9.893
744.0	9.321
745.0	9.233
746.0	8.758
747.0	6.790
748.0	7.705
749.0	9.159
750.0	6.423
751.0	7.763
752.0	7.632
753.0	5.079
754.0	6.153
755.0	5.010
756.0	6.571
757.0	8.873
758.0	9.974
759.0	10.64
760.0	14.39
761.0	10.31
762.0	6.880
763.0	5.591
764.0	10.02
765.0	8.769
766.0	5.691
767.0	11.79
768.0	9.797
769.0	7.584
770.0	8.941
771.0	8.013
772.0	9.614
773.0	12.82
774.0	8.519
775.0	7.170
776.0	9.436
777.0	11.32
778.0	10.52
779.0	5.752
780.0	6.216

Sample:	'wa-3(EM)
File name:	80.FDS
Run Date:	'17:54:05, 07/11/2024
Operator:	WXH
Comment:	'

Instrument
Model:	F-4600 FL Spectrophotometer
Serial Number:	3080-002
ROM Version:	5J24000 02

Instrument Parameters
Measurement type:	Wavelength scan
Scan mode:	Emission
Data mode:	Fluorescence
EX WL:	460.0 nm
EM  Start WL:	480.0 nm
EM  End WL:	780.0 nm
Scan speed:	1200 nm/min
Delay:	0.0 s
EX Slit:	2.5 nm
EM Slit:	2.5 nm
PMT Voltage:	600 V
Response:	Auto 
Corrected spectra:	Off
Shutter control:	On

Peak integration
Integration method:	Rectangular
Sensitivity:	1
Threshold:	1.000

Peaks
No.	Valley(nm)	Valley(Data)
1	507.4	541.3
2	517.8	527.0
3	519.8	495.6
4	524.0	449.5
5	527.4	449.0
6	539.6	342.0
7	560.8	149.7
8	568.0	122.4
9	572.4	103.0
10	576.0	90.20
11	579.4	85.10
12	584.2	73.79
13	589.4	58.48
14	593.0	55.22
15	596.4	44.50
16	605.4	35.70
17	610.0	31.50
18	611.8	26.28
19	616.0	23.60
20	621.0	23.46
21	624.2	20.71
22	628.4	18.65
23	632.2	10.49
24	635.6	12.23
25	639.4	11.90
26	645.0	15.13
27	650.4	8.102
28	654.8	9.580
29	657.6	8.700
30	662.6	10.08
31	666.6	9.415
32	667.8	11.14
33	672.0	6.157
34	676.8	7.732
35	683.6	7.435
36	685.4	6.876
37	688.8	7.541
38	696.2	5.958
39	699.8	7.082
40	702.0	8.333
41	704.0	8.332
42	706.2	8.047
43	707.8	7.431
44	710.6	6.851
45	713.4	5.614
46	720.6	6.117
47	725.4	6.033
48	731.4	8.197
49	733.2	6.165
50	736.6	7.639
51	741.6	6.022
52	744.8	8.332
53	747.4	8.193
54	750.2	5.341
55	754.4	4.595
56	758.4	7.521
57	761.4	5.640
58	763.2	7.076
59	766.0	9.269
60	771.0	4.767
61	774.6	5.138
62	777.4	6.884

Data Points
nm	Data
480.0	25.97
481.0	28.11
482.0	26.90
483.0	30.48
484.0	36.53
485.0	48.78
486.0	53.24
487.0	58.32
488.0	70.31
489.0	84.66
490.0	89.81
491.0	106.1
492.0	150.0
493.0	154.8
494.0	175.5
495.0	190.9
496.0	232.7
497.0	277.7
498.0	291.9
499.0	311.5
500.0	367.5
501.0	396.3
502.0	427.8
503.0	470.1
504.0	500.2
505.0	502.9
506.0	528.2
507.0	570.7
508.0	560.8
509.0	583.3
510.0	586.8
511.0	583.6
512.0	575.6
513.0	585.1
514.0	591.7
515.0	585.5
516.0	552.4
517.0	545.2
518.0	535.3
519.0	532.9
520.0	519.3
521.0	524.7
522.0	511.1
523.0	488.9
524.0	449.5
525.0	487.6
526.0	462.5
527.0	454.9
528.0	463.3
529.0	431.2
530.0	424.0
531.0	402.4
532.0	413.9
533.0	405.8
534.0	387.8
535.0	371.9
536.0	365.1
537.0	374.3
538.0	372.6
539.0	347.7
540.0	352.8
541.0	359.7
542.0	312.8
543.0	320.4
544.0	301.1
545.0	296.6
546.0	294.5
547.0	286.2
548.0	243.4
549.0	255.9
550.0	244.8
551.0	245.9
552.0	238.9
553.0	224.0
554.0	221.1
555.0	215.4
556.0	198.9
557.0	192.5
558.0	186.7
559.0	177.1
560.0	174.7
561.0	158.6
562.0	168.3
563.0	152.8
564.0	145.8
565.0	140.7
566.0	130.7
567.0	132.6
568.0	122.4
569.0	123.3
570.0	121.3
571.0	118.5
572.0	118.3
573.0	114.6
574.0	106.7
575.0	98.65
576.0	90.20
577.0	102.8
578.0	94.42
579.0	90.23
580.0	93.75
581.0	85.50
582.0	88.34
583.0	83.25
584.0	81.21
585.0	82.06
586.0	76.50
587.0	70.64
588.0	69.54
589.0	67.67
590.0	61.87
591.0	62.64
592.0	68.58
593.0	55.22
594.0	58.77
595.0	64.57
596.0	53.49
597.0	51.24
598.0	51.73
599.0	50.60
600.0	45.71
601.0	48.61
602.0	44.64
603.0	41.10
604.0	43.94
605.0	39.96
606.0	42.03
607.0	41.32
608.0	35.42
609.0	37.46
610.0	31.50
611.0	32.06
612.0	30.24
613.0	33.32
614.0	34.25
615.0	31.85
616.0	23.60
617.0	27.39
618.0	33.36
619.0	32.18
620.0	26.10
621.0	23.46
622.0	30.49
623.0	25.98
624.0	23.19
625.0	22.03
626.0	22.32
627.0	21.92
628.0	18.80
629.0	21.83
630.0	22.04
631.0	21.02
632.0	13.45
633.0	15.80
634.0	18.69
635.0	18.39
636.0	18.03
637.0	22.78
638.0	19.08
639.0	13.47
640.0	15.20
641.0	18.23
642.0	22.25
643.0	23.51
644.0	16.56
645.0	15.13
646.0	17.15
647.0	17.05
648.0	21.00
649.0	11.49
650.0	11.56
651.0	14.56
652.0	13.49
653.0	11.83
654.0	12.85
655.0	10.73
656.0	14.26
657.0	11.57
658.0	11.94
659.0	9.619
660.0	13.41
661.0	16.81
662.0	13.58
663.0	12.54
664.0	11.99
665.0	12.79
666.0	12.95
667.0	13.58
668.0	12.12
669.0	11.81
670.0	12.38
671.0	12.77
672.0	6.157
673.0	8.032
674.0	8.289
675.0	8.537
676.0	12.48
677.0	10.81
678.0	15.76
679.0	14.13
680.0	10.84
681.0	11.93
682.0	10.74
683.0	8.510
684.0	10.74
685.0	7.619
686.0	8.106
687.0	9.601
688.0	13.04
689.0	9.031
690.0	12.82
691.0	11.73
692.0	13.74
693.0	14.34
694.0	11.79
695.0	6.313
696.0	6.265
697.0	7.159
698.0	9.815
699.0	10.31
700.0	9.044
701.0	10.31
702.0	8.333
703.0	12.02
704.0	8.332
705.0	12.90
706.0	9.530
707.0	13.55
708.0	9.269
709.0	9.704
710.0	8.511
711.0	7.882
712.0	8.321
713.0	6.508
714.0	9.569
715.0	8.299
716.0	8.394
717.0	12.31
718.0	10.86
719.0	7.597
720.0	8.621
721.0	9.798
722.0	13.68
723.0	11.43
724.0	10.60
725.0	8.322
726.0	7.595
727.0	7.220
728.0	9.271
729.0	12.55
730.0	11.29
731.0	9.896
732.0	10.91
733.0	8.502
734.0	10.87
735.0	8.735
736.0	8.435
737.0	11.72
738.0	11.36
739.0	15.24
740.0	8.717
741.0	9.897
742.0	6.476
743.0	10.32
744.0	10.10
745.0	8.603
746.0	15.87
747.0	10.76
748.0	12.90
749.0	9.443
750.0	5.691
751.0	7.677
752.0	11.11
753.0	12.11
754.0	6.687
755.0	7.616
756.0	7.188
757.0	11.57
758.0	9.488
759.0	15.19
760.0	9.178
761.0	7.503
762.0	12.76
763.0	8.769
764.0	8.376
765.0	12.00
766.0	9.269
767.0	10.09
768.0	13.13
769.0	9.561
770.0	8.471
771.0	4.767
772.0	10.09
773.0	10.28
774.0	6.269
775.0	9.621
776.0	11.55
777.0	9.285
778.0	9.044
779.0	11.76
780.0	11.22

Sample:	'wa-4(EM)
File name:	80.FDS
Run Date:	'17:54:35, 07/11/2024
Operator:	WXH
Comment:	'

Instrument
Model:	F-4600 FL Spectrophotometer
Serial Number:	3080-002
ROM Version:	5J24000 02

Instrument Parameters
Measurement type:	Wavelength scan
Scan mode:	Emission
Data mode:	Fluorescence
EX WL:	460.0 nm
EM  Start WL:	480.0 nm
EM  End WL:	780.0 nm
Scan speed:	1200 nm/min
Delay:	0.0 s
EX Slit:	2.5 nm
EM Slit:	2.5 nm
PMT Voltage:	600 V
Response:	Auto 
Corrected spectra:	Off
Shutter control:	On

Peak integration
Integration method:	Rectangular
Sensitivity:	1
Threshold:	1.000

Peaks
No.	Valley(nm)	Valley(Data)
1	507.2	538.2
2	509.0	534.8
3	510.2	574.9
4	512.0	571.1
5	521.6	480.7
6	524.6	463.7
7	527.8	427.9
8	529.6	405.8
9	535.4	361.5
10	538.8	337.7
11	546.2	260.8
12	558.0	172.0
13	562.4	143.7
14	567.6	120.5
15	571.6	109.0
16	579.4	76.03
17	583.2	76.48
18	586.2	66.21
19	589.2	58.14
20	593.8	48.69
21	596.2	48.99
22	599.8	42.41
23	602.0	40.06
24	605.4	34.00
25	607.2	34.79
26	610.6	31.28
27	614.0	25.29
28	626.6	17.11
29	629.8	17.25
30	633.6	14.69
31	639.4	13.58
32	642.6	15.30
33	647.0	12.06
34	650.4	9.743
35	653.8	8.150
36	657.2	10.49
37	661.6	10.45
38	666.0	8.489
39	670.4	9.763
40	672.8	7.297
41	675.8	7.276
42	681.0	8.237
43	685.0	7.182
44	688.6	9.700
45	692.2	6.125
46	694.8	6.200
47	697.6	9.131
48	700.0	6.951
49	704.6	6.922
50	706.8	8.789
51	709.8	6.098
52	720.4	6.417
53	723.0	6.823
54	725.4	6.565
55	729.4	6.852
56	734.2	5.803
57	736.6	6.738
58	740.4	6.213
59	745.4	4.966
60	751.8	5.684
61	754.0	6.092
62	756.4	8.217
63	758.6	6.910
64	763.2	9.129
65	765.8	6.788
66	768.6	8.166
67	771.0	7.216
68	774.4	7.847
69	777.2	7.851
70	780.0	7.669

Data Points
nm	Data
480.0	25.21
481.0	23.31
482.0	21.15
483.0	28.85
484.0	33.05
485.0	37.53
486.0	43.89
487.0	60.43
488.0	69.26
489.0	86.65
490.0	103.6
491.0	114.8
492.0	125.3
493.0	156.1
494.0	163.6
495.0	201.3
496.0	237.5
497.0	288.0
498.0	302.4
499.0	334.2
500.0	374.6
501.0	395.3
502.0	419.3
503.0	457.7
504.0	513.2
505.0	545.7
506.0	548.8
507.0	543.2
508.0	551.2
509.0	534.8
510.0	584.9
511.0	589.6
512.0	571.1
513.0	593.2
514.0	560.1
515.0	579.9
516.0	553.6
517.0	532.1
518.0	524.2
519.0	521.3
520.0	492.1
521.0	502.6
522.0	491.2
523.0	474.1
524.0	487.2
525.0	469.8
526.0	472.8
527.0	460.7
528.0	434.9
529.0	445.0
530.0	428.8
531.0	440.9
532.0	423.5
533.0	393.4
534.0	403.3
535.0	379.2
536.0	383.9
537.0	354.4
538.0	358.9
539.0	342.9
540.0	368.2
541.0	335.4
542.0	333.9
543.0	323.7
544.0	301.0
545.0	291.6
546.0	262.9
547.0	281.8
548.0	265.3
549.0	271.1
550.0	249.4
551.0	224.7
552.0	223.8
553.0	227.0
554.0	210.1
555.0	216.9
556.0	209.8
557.0	201.4
558.0	172.0
559.0	194.5
560.0	163.8
561.0	166.8
562.0	149.5
563.0	160.3
564.0	144.1
565.0	147.4
566.0	145.4
567.0	130.6
568.0	125.6
569.0	123.2
570.0	120.7
571.0	109.4
572.0	113.4
573.0	110.7
574.0	116.4
575.0	108.3
576.0	100.9
577.0	96.27
578.0	88.40
579.0	82.94
580.0	88.58
581.0	92.07
582.0	83.90
583.0	76.74
584.0	87.03
585.0	78.14
586.0	71.23
587.0	73.60
588.0	61.16
589.0	64.10
590.0	61.29
591.0	59.07
592.0	57.58
593.0	54.92
594.0	52.25
595.0	55.35
596.0	52.21
597.0	56.47
598.0	51.72
599.0	48.06
600.0	51.06
601.0	51.72
602.0	40.06
603.0	46.29
604.0	41.46
605.0	37.37
606.0	39.83
607.0	36.36
608.0	38.17
609.0	40.41
610.0	38.05
611.0	38.00
612.0	33.09
613.0	35.66
614.0	25.29
615.0	32.73
616.0	34.01
617.0	29.12
618.0	30.27
619.0	26.98
620.0	25.42
621.0	28.08
622.0	25.96
623.0	25.64
624.0	19.24
625.0	18.25
626.0	20.34
627.0	19.85
628.0	20.66
629.0	22.54
630.0	19.79
631.0	25.29
632.0	25.93
633.0	19.22
634.0	16.99
635.0	17.99
636.0	20.75
637.0	17.31
638.0	14.61
639.0	13.86
640.0	18.24
641.0	14.69
642.0	18.60
643.0	20.45
644.0	21.18
645.0	16.61
646.0	14.01
647.0	12.06
648.0	15.48
649.0	13.77
650.0	13.70
651.0	11.04
652.0	15.58
653.0	12.32
654.0	8.218
655.0	12.61
656.0	13.50
657.0	11.37
658.0	14.47
659.0	14.98
660.0	13.10
661.0	10.93
662.0	11.97
663.0	14.24
664.0	14.87
665.0	10.96
666.0	8.489
667.0	12.89
668.0	14.36
669.0	14.60
670.0	12.87
671.0	12.81
672.0	13.85
673.0	8.009
674.0	8.976
675.0	9.571
676.0	8.438
677.0	10.67
678.0	14.69
679.0	11.91
680.0	9.684
681.0	8.237
682.0	9.977
683.0	10.30
684.0	9.862
685.0	7.182
686.0	10.50
687.0	9.136
688.0	12.98
689.0	11.14
690.0	11.46
691.0	12.35
692.0	7.264
