Sample:	'wa-1(EM)
File name:	10.FDS
Run Date:	'16:57:12, 07/11/2024
Operator:	WXH
Comment:	'

Instrument
Model:	F-4600 FL Spectrophotometer
Serial Number:	3080-002
ROM Version:	5J24000 02

Instrument Parameters
Measurement type:	Wavelength scan
Scan mode:	Emission
Data mode:	Fluorescence
EX WL:	460.0 nm
EM  Start WL:	480.0 nm
EM  End WL:	780.0 nm
Scan speed:	1200 nm/min
Delay:	0.0 s
EX Slit:	2.5 nm
EM Slit:	2.5 nm
PMT Voltage:	600 V
Response:	Auto 
Corrected spectra:	Off
Shutter control:	On

Peak integration
Integration method:	Rectangular
Sensitivity:	1
Threshold:	1.000

Peaks
No.	Valley(nm)	Valley(Data)
1	511.6	403.4
2	513.2	388.6
3	519.4	422.1
4	522.6	394.6
5	530.2	352.9
6	536.6	357.9
7	541.2	337.4
8	545.8	323.0
9	551.4	303.3
10	556.4	264.5
11	558.2	261.6
12	562.0	255.4
13	568.4	209.7
14	572.0	180.1
15	580.6	160.6
16	583.4	148.2
17	587.8	117.9
18	591.6	111.5
19	593.2	111.7
20	597.8	101.0
21	606.0	78.01
22	611.2	74.56
23	616.0	69.68
24	622.0	55.62
25	623.8	46.74
26	625.4	45.63
27	629.6	45.01
28	633.0	41.86
29	635.8	33.34
30	641.0	29.02
31	643.0	28.67
32	648.2	23.87
33	652.0	25.10
34	654.0	22.66
35	656.6	16.03
36	661.2	16.39
37	665.6	16.34
38	668.8	12.02
39	671.4	13.25
40	675.0	10.33
41	680.8	9.024
42	684.2	10.83
43	685.8	10.26
44	689.2	8.206
45	692.6	8.442
46	697.2	9.438
47	699.6	7.516
48	704.8	6.592
49	708.2	6.106
50	710.0	4.045
51	713.8	5.917
52	720.0	5.652
53	725.2	5.874
54	729.0	4.491
55	731.6	5.509
56	735.0	4.219
57	736.4	5.760
58	741.2	4.623
59	744.4	4.936
60	746.8	5.277
61	748.6	6.262
62	751.2	6.432
63	754.0	4.283
64	758.4	4.445
65	760.0	3.087
66	762.4	3.612
67	764.6	4.844
68	766.4	4.229
69	768.2	5.463
70	770.6	5.366
71	773.4	4.824
72	778.2	6.705
73	780.0	6.001

Data Points
nm	Data
480.0	23.09
481.0	20.97
482.0	26.04
483.0	31.67
484.0	27.99
485.0	35.81
486.0	42.96
487.0	52.29
488.0	55.51
489.0	63.26
490.0	80.49
491.0	85.89
492.0	93.10
493.0	123.3
494.0	136.1
495.0	154.9
496.0	159.5
497.0	180.0
498.0	205.4
499.0	224.8
500.0	248.3
501.0	251.2
502.0	281.2
503.0	292.1
504.0	316.6
505.0	322.4
506.0	349.4
507.0	360.0
508.0	366.8
509.0	380.3
510.0	378.0
511.0	440.0
512.0	415.1
513.0	400.3
514.0	394.5
515.0	417.2
516.0	427.3
517.0	429.1
518.0	421.9
519.0	426.8
520.0	432.4
521.0	426.3
522.0	397.8
523.0	401.2
524.0	404.9
525.0	391.5
526.0	393.5
527.0	381.1
528.0	372.4
529.0	374.8
530.0	366.1
531.0	368.3
532.0	373.5
533.0	378.1
534.0	388.0
535.0	374.9
536.0	364.2
537.0	370.4
538.0	359.2
539.0	355.3
540.0	353.0
541.0	343.7
542.0	342.8
543.0	351.4
544.0	354.9
545.0	325.1
546.0	325.3
547.0	347.5
548.0	331.7
549.0	329.6
550.0	323.5
551.0	317.1
552.0	317.4
553.0	338.0
554.0	309.8
555.0	321.7
556.0	287.3
557.0	272.2
558.0	265.2
559.0	277.8
560.0	272.2
561.0	276.2
562.0	255.4
563.0	276.5
564.0	259.7
565.0	246.6
566.0	235.5
567.0	226.0
568.0	221.0
569.0	212.3
570.0	222.0
571.0	202.6
572.0	180.1
573.0	195.4
574.0	200.1
575.0	195.3
576.0	193.8
577.0	197.0
578.0	172.7
579.0	168.2
580.0	165.8
581.0	166.0
582.0	160.7
583.0	161.3
584.0	150.9
585.0	140.0
586.0	149.9
587.0	132.2
588.0	121.7
589.0	135.0
590.0	125.3
591.0	120.7
592.0	133.6
593.0	117.4
594.0	125.0
595.0	109.0
596.0	117.2
597.0	108.4
598.0	106.2
599.0	111.5
600.0	102.1
601.0	103.2
602.0	104.7
603.0	91.75
604.0	86.83
605.0	81.64
606.0	78.01
607.0	92.41
608.0	84.59
609.0	87.30
610.0	88.71
611.0	77.71
612.0	83.85
613.0	80.33
614.0	75.71
615.0	75.10
616.0	69.68
617.0	72.94
618.0	70.74
619.0	70.50
620.0	61.55
621.0	62.61
622.0	55.62
623.0	59.37
624.0	53.90
625.0	51.43
626.0	54.41
627.0	52.52
628.0	52.86
629.0	45.11
630.0	48.43
631.0	47.94
632.0	43.91
633.0	41.86
634.0	49.29
635.0	43.10
636.0	35.22
637.0	34.92
638.0	36.73
639.0	40.67
640.0	30.05
641.0	29.02
642.0	28.57
643.0	28.67
644.0	33.96
645.0	30.15
646.0	33.98
647.0	27.11
648.0	25.39
649.0	26.20
650.0	28.50
651.0	27.73
652.0	25.10
653.0	26.24
654.0	22.66
655.0	22.15
656.0	24.26
657.0	19.68
658.0	22.72
659.0	24.37
660.0	20.85
661.0	18.46
662.0	17.14
663.0	20.69
664.0	19.08
665.0	18.01
666.0	22.77
667.0	20.30
668.0	18.95
669.0	13.22
670.0	16.17
671.0	15.49
672.0	17.07
673.0	15.08
674.0	16.27
675.0	10.33
676.0	12.21
677.0	11.76
678.0	17.04
679.0	17.55
680.0	12.68
681.0	11.85
682.0	14.70
683.0	13.95
684.0	11.41
685.0	18.16
686.0	11.90
687.0	14.05
688.0	12.92
689.0	9.212
690.0	9.809
691.0	11.56
692.0	10.61
693.0	13.44
694.0	13.37
695.0	12.68
696.0	8.611
697.0	10.68
698.0	11.11
699.0	11.22
700.0	10.17
701.0	9.929
702.0	12.64
703.0	16.32
704.0	8.136
705.0	7.412
706.0	11.59
707.0	8.251
708.0	7.461
709.0	10.33
710.0	4.045
711.0	7.071
712.0	7.090
713.0	7.545
714.0	7.495
715.0	10.29
716.0	9.920
717.0	12.52
718.0	9.994
719.0	10.15
720.0	5.652
721.0	8.550
722.0	11.95
723.0	11.24
724.0	8.188
725.0	6.923
726.0	8.523
727.0	11.68
728.0	7.536
729.0	4.491
730.0	8.877
731.0	5.842
732.0	6.490
733.0	5.906
734.0	7.212
735.0	4.219
736.0	6.562
737.0	8.489
738.0	7.456
739.0	8.628
740.0	7.129
741.0	6.619
742.0	10.04
743.0	6.045
744.0	6.554
745.0	5.945
746.0	7.444
747.0	6.321
748.0	9.690
749.0	9.582
750.0	7.663
751.0	6.703
752.0	8.006
753.0	5.481
754.0	4.283
755.0	9.056
756.0	7.874
757.0	6.136
758.0	4.591
759.0	6.347
760.0	3.087
761.0	7.948
762.0	5.701
763.0	8.029
764.0	6.346
765.0	8.073
766.0	5.023
767.0	5.727
768.0	5.808
769.0	7.855
770.0	6.962
771.0	5.700
772.0	8.036
773.0	5.124
774.0	8.057
775.0	7.951
776.0	8.421
777.0	8.195
778.0	7.861
779.0	8.192
780.0	6.001

Sample:	'wa-2(EM)
File name:	10.FDS
Run Date:	'16:57:42, 07/11/2024
Operator:	WXH
Comment:	'

Instrument
Model:	F-4600 FL Spectrophotometer
Serial Number:	3080-002
ROM Version:	5J24000 02

Instrument Parameters
Measurement type:	Wavelength scan
Scan mode:	Emission
Data mode:	Fluorescence
EX WL:	460.0 nm
EM  Start WL:	480.0 nm
EM  End WL:	780.0 nm
Scan speed:	1200 nm/min
Delay:	0.0 s
EX Slit:	2.5 nm
EM Slit:	2.5 nm
PMT Voltage:	600 V
Response:	Auto 
Corrected spectra:	Off
Shutter control:	On

Peak integration
Integration method:	Rectangular
Sensitivity:	1
Threshold:	1.000

Peaks
No.	Valley(nm)	Valley(Data)
1	509.8	361.8
2	516.8	398.5
3	528.6	368.3
4	531.0	353.1
5	535.8	349.8
6	542.0	332.2
7	546.8	312.4
8	548.6	302.5
9	552.6	296.0
10	557.2	277.6
11	560.4	248.2
12	563.6	244.7
13	568.8	217.0
14	571.0	188.5
15	576.0	173.2
16	577.8	172.8
17	582.2	154.4
18	591.0	115.6
19	593.4	112.5
20	600.6	90.64
21	602.2	95.40
22	605.2	83.53
23	607.0	83.42
24	610.4	74.02
25	613.6	66.74
26	620.6	56.28
27	625.4	49.71
28	627.4	42.90
29	629.8	37.39
30	632.8	41.87
31	636.0	31.00
32	638.6	33.84
33	643.0	30.65
34	649.4	22.92
35	652.2	19.63
36	653.8	19.16
37	659.8	16.91
38	664.2	14.87
39	666.6	12.62
40	668.8	11.22
41	672.4	12.09
42	679.2	8.840
43	686.2	10.36
44	689.0	12.81
45	692.4	10.78
46	695.2	8.214
47	699.6	5.422
48	702.4	8.084
49	704.8	8.983
50	707.2	8.574
51	711.4	6.333
52	715.2	7.166
53	719.2	5.387
54	725.2	4.598
55	729.4	7.014
56	731.2	6.469
57	733.8	8.015
58	739.0	7.441
59	746.6	5.007
60	748.6	6.058
61	750.8	6.380
62	753.2	4.669
63	755.4	6.732
64	759.6	4.623
65	763.4	5.651
66	765.4	6.205
67	768.2	4.871
68	770.4	5.871
69	771.8	3.925
70	775.4	4.894
71	777.8	4.492

Data Points
nm	Data
480.0	22.09
481.0	24.62
482.0	28.86
483.0	27.81
484.0	29.05
485.0	36.93
486.0	41.44
487.0	54.70
488.0	47.71
489.0	68.89
490.0	77.82
491.0	83.38
492.0	96.03
493.0	114.5
494.0	119.1
495.0	144.2
496.0	169.1
497.0	181.9
498.0	192.2
499.0	210.9
500.0	226.6
501.0	260.4
502.0	281.2
503.0	306.6
504.0	334.5
505.0	343.5
506.0	336.4
507.0	369.8
508.0	373.1
509.0	390.5
510.0	367.0
511.0	383.2
512.0	409.3
513.0	426.7
514.0	418.7
515.0	408.8
516.0	430.6
517.0	407.7
518.0	406.6
519.0	426.9
520.0	426.0
521.0	430.2
522.0	412.3
523.0	421.3
524.0	405.5
525.0	390.8
526.0	384.3
527.0	391.5
528.0	370.6
529.0	392.2
530.0	380.7
531.0	353.1
532.0	378.2
533.0	361.2
534.0	390.3
535.0	377.4
536.0	354.6
537.0	354.8
538.0	360.6
539.0	344.0
540.0	338.1
541.0	337.7
542.0	332.2
543.0	339.3
544.0	352.3
545.0	350.0
546.0	340.4
547.0	319.8
548.0	338.0
549.0	317.7
550.0	326.2
551.0	309.4
552.0	313.1
553.0	315.5
554.0	312.7
555.0	311.5
556.0	297.6
557.0	278.2
558.0	298.8
559.0	292.4
560.0	270.1
561.0	266.7
562.0	280.1
563.0	249.4
564.0	255.2
565.0	238.5
566.0	233.2
567.0	229.6
568.0	217.7
569.0	220.0
570.0	229.3
571.0	188.5
572.0	220.8
573.0	194.7
574.0	189.5
575.0	186.7
576.0	173.2
577.0	178.2
578.0	184.6
579.0	167.1
580.0	176.4
581.0	161.1
582.0	160.4
583.0	162.3
584.0	167.0
585.0	151.2
586.0	144.3
587.0	142.5
588.0	133.6
589.0	133.0
590.0	127.9
591.0	115.6
592.0	132.1
593.0	114.2
594.0	125.4
595.0	115.5
596.0	115.2
597.0	109.1
598.0	108.6
599.0	100.8
600.0	101.2
601.0	100.7
602.0	95.81
603.0	98.55
604.0	93.80
605.0	87.34
606.0	91.68
607.0	83.42
608.0	86.82
609.0	81.81
610.0	81.76
611.0	81.57
612.0	79.73
613.0	84.39
614.0	70.75
615.0	74.36
616.0	71.43
617.0	64.46
618.0	70.22
619.0	66.55
620.0	59.20
621.0	64.97
622.0	68.58
623.0	57.90
624.0	55.28
625.0	56.26
626.0	53.49
627.0	46.46
628.0	51.90
629.0	43.36
630.0	39.11
631.0	46.87
632.0	42.84
633.0	44.98
634.0	40.87
635.0	35.73
636.0	31.00
637.0	34.17
638.0	38.90
639.0	38.08
640.0	43.37
641.0	37.93
642.0	36.11
643.0	30.65
644.0	32.40
645.0	34.46
646.0	26.34
647.0	27.20
648.0	26.31
649.0	24.78
650.0	25.10
651.0	26.52
652.0	22.26
653.0	23.95
654.0	21.46
655.0	21.76
656.0	27.81
657.0	21.91
658.0	24.51
659.0	22.07
660.0	19.35
661.0	20.53
662.0	19.60
663.0	16.64
664.0	16.06
665.0	18.13
666.0	18.17
667.0	16.45
668.0	14.61
669.0	16.43
670.0	15.76
671.0	16.81
672.0	14.24
673.0	15.43
674.0	12.74
675.0	17.24
676.0	17.09
677.0	19.14
678.0	12.12
679.0	9.138
680.0	9.531
681.0	12.20
682.0	13.39
683.0	11.84
684.0	13.40
685.0	11.70
686.0	11.38
687.0	12.34
688.0	16.02
689.0	12.81
690.0	14.39
691.0	12.09
692.0	12.51
693.0	14.65
694.0	11.10
695.0	10.02
696.0	10.22
697.0	13.44
698.0	9.523
699.0	10.62
700.0	11.25
701.0	11.22
702.0	9.108
703.0	10.72
704.0	10.16
705.0	9.698
706.0	10.49
707.0	9.075
708.0	11.27
709.0	15.21
710.0	10.27
711.0	9.879
712.0	8.691
713.0	11.27
714.0	7.796
715.0	7.596
716.0	7.879
717.0	8.768
718.0	8.663
719.0	5.630
720.0	7.523
721.0	7.573
722.0	7.900
723.0	9.019
724.0	8.214
725.0	5.725
726.0	7.696
727.0	7.572
728.0	11.34
729.0	8.266
730.0	12.06
731.0	8.229
732.0	8.497
733.0	9.744
734.0	8.304
735.0	9.711
736.0	7.925
737.0	10.83
738.0	9.066
739.0	7.441
740.0	10.09
741.0	10.74
742.0	12.86
743.0	14.28
744.0	9.667
745.0	9.348
746.0	7.902
747.0	6.846
748.0	8.289
749.0	8.975
750.0	10.48
751.0	7.977
752.0	8.420
753.0	7.119
754.0	8.249
755.0	9.922
756.0	13.11
757.0	8.662
758.0	7.375
759.0	6.675
760.0	7.526
761.0	10.57
762.0	8.637
763.0	6.683
764.0	7.596
765.0	7.168
766.0	9.366
767.0	7.010
768.0	5.980
769.0	6.637
770.0	6.577
771.0	7.390
772.0	4.220
773.0	8.791
774.0	6.433
775.0	9.240
776.0	9.354
777.0	8.783
778.0	6.489
779.0	5.421
780.0	9.770

Sample:	'wa-3(EM)
File name:	10.FDS
Run Date:	'16:58:12, 07/11/2024
Operator:	WXH
Comment:	'

Instrument
Model:	F-4600 FL Spectrophotometer
Serial Number:	3080-002
ROM Version:	5J24000 02

Instrument Parameters
Measurement type:	Wavelength scan
Scan mode:	Emission
Data mode:	Fluorescence
EX WL:	460.0 nm
EM  Start WL:	480.0 nm
EM  End WL:	780.0 nm
Scan speed:	1200 nm/min
Delay:	0.0 s
EX Slit:	2.5 nm
EM Slit:	2.5 nm
PMT Voltage:	600 V
Response:	Auto 
Corrected spectra:	Off
Shutter control:	On

Peak integration
Integration method:	Rectangular
Sensitivity:	1
Threshold:	1.000

Peaks
No.	Valley(nm)	Valley(Data)
1	514.2	390.1
2	518.2	392.8
3	521.8	404.0
4	524.0	383.5
5	526.6	382.2
6	530.8	355.3
7	532.8	343.0
8	534.2	344.7
9	537.4	337.4
10	539.6	338.8
11	545.4	311.1
12	548.2	310.2
13	557.4	270.1
14	558.8	258.9
15	560.4	253.9
16	565.8	217.0
17	568.6	208.2
18	572.0	197.2
19	576.6	175.6
20	583.0	132.8
21	586.4	128.1
22	589.8	122.3
23	592.8	117.1
24	597.0	107.2
25	601.4	93.62
26	609.0	72.58
27	611.8	69.71
28	614.4	66.61
29	615.8	64.10
30	619.4	58.05
31	624.2	50.48
32	628.0	43.16
33	632.4	32.16
34	635.2	32.39
35	637.8	34.23
36	644.8	23.88
37	646.6	24.71
38	649.2	26.75
39	651.6	24.02
40	655.4	19.32
41	661.8	15.52
42	667.2	14.87
43	670.0	13.53
44	672.6	13.61
45	679.2	10.93
46	683.4	12.20
47	686.6	8.279
48	689.6	10.13
49	691.4	7.076
50	695.8	8.274
51	698.8	7.943
52	703.6	4.683
53	707.8	9.276
54	710.6	7.256
55	712.4	5.445
56	717.6	3.969
57	719.0	3.371
58	723.4	5.147
59	727.2	6.692
60	733.4	6.495
61	735.8	5.112
62	738.8	4.919
63	745.6	5.143
64	747.0	4.447
65	750.4	4.321
66	752.6	4.111
67	755.2	3.706
68	758.2	5.510
69	761.8	6.023
70	765.8	4.977
71	770.6	3.152
72	774.8	5.442
73	780.0	7.995

Data Points
nm	Data
480.0	15.39
481.0	20.06
482.0	20.96
483.0	29.51
484.0	34.90
485.0	37.70
486.0	44.16
487.0	50.79
488.0	55.09
489.0	66.53
490.0	72.90
491.0	91.73
492.0	97.80
493.0	120.4
494.0	132.4
495.0	160.9
496.0	163.9
497.0	183.2
498.0	188.7
499.0	208.4
500.0	244.0
501.0	255.1
502.0	269.3
503.0	294.5
504.0	312.7
505.0	327.8
506.0	319.3
507.0	349.0
508.0	357.2
509.0	358.3
510.0	388.6
511.0	400.5
512.0	410.8
513.0	410.2
514.0	401.0
515.0	424.9
516.0	420.2
517.0	409.0
518.0	404.2
519.0	408.0
520.0	423.1
521.0	405.6
522.0	406.7
523.0	412.7
524.0	383.5
525.0	395.5
526.0	394.4
527.0	389.1
528.0	407.8
529.0	371.1
530.0	356.2
531.0	364.7
532.0	362.8
533.0	361.9
534.0	361.6
535.0	364.0
536.0	359.5
537.0	353.8
538.0	360.9
539.0	362.6
540.0	340.5
541.0	360.7
542.0	355.2
543.0	342.7
544.0	327.0
545.0	319.8
546.0	339.1
547.0	315.3
548.0	315.3
549.0	322.4
550.0	321.6
551.0	312.7
552.0	313.3
553.0	302.9
554.0	308.8
555.0	289.7
556.0	293.0
557.0	279.7
558.0	294.4
559.0	262.5
560.0	283.7
561.0	261.3
562.0	267.2
563.0	263.8
564.0	246.7
565.0	239.9
566.0	224.6
567.0	231.8
568.0	213.5
569.0	211.4
570.0	227.7
571.0	217.1
572.0	197.2
573.0	216.6
574.0	183.2
575.0	182.9
576.0	177.7
577.0	183.6
578.0	178.9
579.0	176.0
580.0	166.4
581.0	156.9
582.0	149.2
583.0	132.8
584.0	157.9
585.0	143.9
586.0	140.0
587.0	132.1
588.0	126.4
589.0	132.0
590.0	122.7
591.0	127.8
592.0	122.3
593.0	120.7
594.0	117.4
595.0	122.8
596.0	113.9
597.0	107.2
598.0	109.2
599.0	106.8
600.0	98.45
601.0	103.7
602.0	103.2
603.0	108.8
604.0	104.2
605.0	87.62
606.0	87.48
607.0	83.20
608.0	79.36
609.0	72.58
610.0	78.88
611.0	77.84
612.0	74.21
613.0	75.00
614.0	67.53
615.0	76.73
616.0	66.68
617.0	70.17
618.0	64.25
619.0	58.24
620.0	67.49
621.0	63.51
622.0	60.26
623.0	58.79
624.0	53.90
625.0	61.13
626.0	50.06
627.0	51.89
628.0	43.16
629.0	50.92
630.0	48.87
631.0	45.94
632.0	37.96
633.0	43.58
634.0	43.26
635.0	37.38
636.0	45.95
637.0	39.97
638.0	39.10
639.0	37.77
640.0	36.58
641.0	37.31
642.0	34.61
643.0	32.16
644.0	27.53
645.0	25.83
646.0	30.90
647.0	26.41
648.0	35.03
649.0	28.75
650.0	28.59
651.0	32.06
652.0	27.78
653.0	28.36
654.0	26.62
655.0	21.41
656.0	23.27
657.0	21.87
658.0	26.00
659.0	23.58
660.0	23.10
661.0	20.44
662.0	18.18
663.0	16.25
664.0	17.76
665.0	22.93
666.0	16.07
667.0	17.98
668.0	19.38
669.0	16.38
670.0	13.53
671.0	14.70
672.0	18.67
673.0	14.44
674.0	18.20
675.0	13.99
676.0	14.77
677.0	15.20
678.0	14.21
679.0	12.02
680.0	11.26
681.0	17.34
682.0	14.85
683.0	15.75
684.0	14.60
685.0	15.22
686.0	9.268
687.0	12.94
688.0	12.66
689.0	11.98
690.0	14.01
691.0	9.413
692.0	10.33
693.0	12.41
694.0	10.00
695.0	9.078
696.0	11.00
697.0	11.88
698.0	8.898
699.0	9.570
700.0	10.27
701.0	11.58
702.0	9.407
703.0	7.216
704.0	7.644
705.0	9.867
706.0	7.972
707.0	12.48
708.0	9.306
709.0	14.56
710.0	11.23
711.0	7.965
712.0	9.144
713.0	11.16
714.0	8.947
715.0	6.738
716.0	8.635
717.0	6.450
718.0	7.045
719.0	3.371
720.0	10.57
721.0	9.336
722.0	9.337
723.0	8.132
724.0	7.497
725.0	11.15
726.0	9.069
727.0	7.913
728.0	11.30
729.0	9.361
730.0	11.55
731.0	10.18
732.0	8.342
733.0	7.361
734.0	10.24
735.0	8.255
736.0	6.005
737.0	7.649
738.0	6.112
739.0	4.921
740.0	7.678
741.0	8.135
742.0	6.998
743.0	8.515
744.0	8.397
745.0	7.614
746.0	8.500
747.0	4.447
748.0	5.982
749.0	10.64
750.0	6.162
751.0	5.642
752.0	9.136
753.0	6.971
754.0	9.035
755.0	4.770
756.0	8.236
757.0	8.811
758.0	6.926
759.0	8.503
760.0	9.290
761.0	6.835
762.0	6.698
763.0	7.579
764.0	7.327
765.0	6.869
766.0	7.749
767.0	8.715
768.0	12.87
769.0	7.113
770.0	4.979
771.0	5.995
772.0	7.090
773.0	8.900
774.0	12.64
775.0	6.993
776.0	6.916
777.0	11.18
778.0	8.520
779.0	9.005
780.0	7.995

Sample:	'wa-4(EM)
File name:	10.FDS
Run Date:	'16:58:42, 07/11/2024
Operator:	WXH
Comment:	'

Instrument
Model:	F-4600 FL Spectrophotometer
Serial Number:	3080-002
ROM Version:	5J24000 02

Instrument Parameters
Measurement type:	Wavelength scan
Scan mode:	Emission
Data mode:	Fluorescence
EX WL:	460.0 nm
EM  Start WL:	480.0 nm
EM  End WL:	780.0 nm
Scan speed:	1200 nm/min
Delay:	0.0 s
EX Slit:	2.5 nm
EM Slit:	2.5 nm
PMT Voltage:	600 V
Response:	Auto 
Corrected spectra:	Off
Shutter control:	On

Peak integration
Integration method:	Rectangular
Sensitivity:	1
Threshold:	1.000

Peaks
No.	Valley(nm)	Valley(Data)
1	507.6	347.7
2	512.2	389.3
3	515.2	391.2
4	518.4	397.5
5	521.2	401.7
6	527.8	365.1
7	531.8	338.1
8	534.0	344.6
9	535.6	344.0
10	540.0	324.3
11	546.8	305.4
12	550.4	297.1
13	555.2	288.6
14	560.8	243.6
15	568.4	213.2
16	574.6	184.4
17	578.8	141.9
18	584.8	132.7
19	589.6	119.5
20	593.0	109.5
21	596.2	104.8
22	598.2	91.25
23	601.2	96.36
24	607.2	77.97
25	612.2	66.44
26	617.6	50.72
27	623.0	49.41
28	625.2	40.22
29	627.4	44.41
30	633.0	34.08
31	636.2	33.64
32	638.8	26.87
33	641.0	27.56
34	643.2	23.76
35	647.0	24.15
36	653.4	23.46
37	655.4	24.94
38	658.2	17.40
39	662.2	14.92
40	663.6	15.72
41	666.6	13.63
42	670.8	14.40
43	672.8	13.23
44	677.6	9.621
45	679.6	9.824
46	685.0	7.016
47	689.0	7.778
48	691.8	7.646
49	697.2	8.339
50	699.2	6.651
51	702.6	5.949
52	706.6	5.643
53	712.0	8.140
54	714.8	5.050
55	715.8	6.724
56	719.8	6.241
57	725.8	3.654
58	730.6	6.435
59	734.8	6.191
60	737.6	4.813
61	742.0	5.396
62	747.2	5.161
63	749.6	4.369
64	753.0	6.219
65	755.2	5.470
66	762.0	4.885
67	764.0	4.462
68	769.0	5.140
69	772.0	6.330
70	774.8	5.754

Data Points
nm	Data
480.0	15.97
481.0	19.87
482.0	20.40
483.0	26.39
484.0	30.48
485.0	39.29
486.0	37.30
487.0	48.66
488.0	58.82
489.0	61.79
490.0	72.71
491.0	73.85
492.0	96.88
493.0	110.1
494.0	126.8
495.0	159.4
496.0	160.7
497.0	177.0
498.0	199.5
499.0	216.3
500.0	225.1
501.0	243.5
502.0	244.7
503.0	287.2
504.0	309.3
505.0	324.5
506.0	331.9
507.0	355.2
508.0	350.3
509.0	358.6
510.0	366.2
511.0	399.2
512.0	394.7
513.0	391.1
514.0	413.5
515.0	392.9
516.0	430.0
517.0	410.2
518.0	418.8
519.0	410.7
520.0	413.1
521.0	403.5
522.0	411.0
523.0	414.5
524.0	415.3
525.0	403.5
526.0	398.6
527.0	386.5
528.0	389.2
529.0	393.2
530.0	385.6
531.0	367.2
532.0	343.6
533.0	349.9
534.0	344.6
535.0	360.6
536.0	355.2
537.0	370.2
538.0	360.4
539.0	352.7
540.0	324.3
541.0	341.0
542.0	347.9
543.0	343.8
544.0	341.6
545.0	329.2
546.0	309.5
547.0	325.3
548.0	324.0
549.0	312.1
550.0	317.1
551.0	299.6
552.0	313.6
553.0	303.5
554.0	296.6
555.0	298.8
556.0	305.9
557.0	306.4
558.0	270.9
559.0	286.3
560.0	284.0
561.0	248.4
562.0	246.4
563.0	237.2
564.0	239.2
565.0	239.3
566.0	220.2
567.0	219.8
568.0	224.6
569.0	226.5
570.0	224.4
571.0	217.8
572.0	208.7
573.0	202.6
574.0	187.9
575.0	198.7
576.0	188.8
577.0	182.6
578.0	172.5
579.0	147.3
580.0	154.8
581.0	151.5
582.0	171.0
583.0	161.7
584.0	147.3
585.0	139.8
586.0	143.8
587.0	149.1
588.0	138.5
589.0	131.4
590.0	132.6
591.0	136.5
592.0	119.4
593.0	109.5
594.0	117.4
595.0	112.2
596.0	108.1
597.0	102.2
598.0	96.75
599.0	94.71
600.0	105.3
601.0	97.19
602.0	98.70
603.0	97.23
604.0	93.76
605.0	102.7
606.0	96.84
607.0	84.26
608.0	89.00
609.0	82.41
610.0	77.01
611.0	73.17
612.0	68.47
613.0	79.16
614.0	75.73
615.0	73.32
616.0	64.41
617.0	64.37
618.0	55.33
619.0	57.92
620.0	68.65
621.0	65.69
622.0	54.67
623.0	49.41
624.0	51.92
625.0	42.70
626.0	51.80
627.0	54.37
628.0	51.55
629.0	49.83
630.0	50.35
631.0	40.68
632.0	45.39
633.0	34.08
634.0	37.24
635.0	38.53
636.0	35.54
637.0	35.38
638.0	30.31
639.0	31.17
640.0	31.51
641.0	27.56
642.0	29.02
643.0	24.06
644.0	28.24
645.0	29.15
646.0	30.36
647.0	24.15
648.0	31.79
649.0	30.80
650.0	28.41
651.0	27.05
652.0	25.96
653.0	25.73
654.0	24.92
655.0	26.83
656.0	25.91
657.0	22.74
658.0	18.75
659.0	20.40
660.0	24.17
661.0	17.46
662.0	16.88
663.0	19.88
664.0	17.49
665.0	22.27
666.0	14.97
667.0	16.87
668.0	19.29
669.0	20.56
670.0	16.55
671.0	14.51
672.0	18.23
673.0	13.35
674.0	15.29
675.0	15.33
