Sample:	'wa-1(EM)
File name:	20.FDS
Run Date:	'16:40:00, 07/11/2024
Operator:	WXH
Comment:	'

Instrument
Model:	F-4600 FL Spectrophotometer
Serial Number:	3080-002
ROM Version:	5J24000 02

Instrument Parameters
Measurement type:	Wavelength scan
Scan mode:	Emission
Data mode:	Fluorescence
EX WL:	460.0 nm
EM  Start WL:	480.0 nm
EM  End WL:	780.0 nm
Scan speed:	1200 nm/min
Delay:	0.0 s
EX Slit:	2.5 nm
EM Slit:	2.5 nm
PMT Voltage:	600 V
Response:	Auto 
Corrected spectra:	Off
Shutter control:	On

Peak integration
Integration method:	Rectangular
Sensitivity:	1
Threshold:	1.000

Peaks
No.	Valley(nm)	Valley(Data)
1	488.4	15.44
2	509.0	163.9
3	515.8	185.6
4	521.6	192.6
5	525.6	188.6
6	527.4	195.0
7	533.0	182.9
8	535.6	170.6
9	536.8	171.1
10	540.0	172.5
11	546.0	157.7
12	552.4	151.6
13	556.6	139.3
14	560.0	134.3
15	565.6	117.6
16	569.0	116.5
17	572.2	99.68
18	574.8	102.8
19	576.6	95.13
20	580.6	81.69
21	583.6	80.24
22	585.4	71.30
23	587.4	77.32
24	591.2	59.93
25	596.8	57.87
26	599.8	55.54
27	601.8	55.07
28	607.6	47.82
29	610.2	41.90
30	611.6	42.70
31	615.4	38.66
32	619.2	34.11
33	625.6	29.21
34	629.0	27.19
35	632.4	26.38
36	636.0	21.07
37	639.2	17.51
38	641.4	20.38
39	644.0	18.86
40	645.2	16.62
41	650.4	12.74
42	652.6	13.60
43	655.0	15.62
44	658.2	11.63
45	659.8	12.73
46	663.8	13.95
47	665.8	10.10
48	667.4	10.95
49	674.6	6.561
50	676.6	7.933
51	679.0	8.482
52	681.8	8.630
53	684.4	8.584
54	687.8	7.252
55	690.0	6.476
56	691.6	6.054
57	696.0	4.306
58	701.6	8.857
59	705.8	6.178
60	710.6	6.250
61	714.4	6.213
62	717.0	5.955
63	720.0	6.126
64	723.4	6.920
65	727.6	2.525
66	732.0	3.580
67	735.2	6.117
68	740.6	3.303
69	742.6	3.835
70	744.6	5.094
71	748.8	3.713
72	751.2	3.832
73	756.2	4.214
74	761.0	4.929
75	765.0	3.593
76	767.4	4.390
77	773.0	6.329
78	776.0	7.396
79	780.0	6.353

Data Points
nm	Data
480.0	9.024
481.0	13.76
482.0	10.77
483.0	15.53
484.0	19.69
485.0	23.90
486.0	26.62
487.0	19.44
488.0	16.21
489.0	22.95
490.0	32.81
491.0	44.86
492.0	42.69
493.0	53.97
494.0	56.22
495.0	66.19
496.0	74.20
497.0	86.19
498.0	84.60
499.0	94.25
500.0	105.7
501.0	102.9
502.0	116.8
503.0	126.0
504.0	140.4
505.0	151.0
506.0	156.2
507.0	168.6
508.0	180.2
509.0	163.9
510.0	186.8
511.0	189.1
512.0	195.3
513.0	203.6
514.0	197.0
515.0	209.0
516.0	189.8
517.0	200.8
518.0	204.4
519.0	213.9
520.0	217.8
521.0	207.5
522.0	198.7
523.0	210.1
524.0	187.1
525.0	192.0
526.0	201.9
527.0	199.5
528.0	202.4
529.0	210.5
530.0	200.5
531.0	195.0
532.0	188.4
533.0	182.9
534.0	188.5
535.0	176.8
536.0	177.1
537.0	173.3
538.0	187.4
539.0	182.9
540.0	172.5
541.0	187.5
542.0	182.9
543.0	176.8
544.0	179.5
545.0	174.8
546.0	157.7
547.0	172.2
548.0	180.5
549.0	167.6
550.0	176.4
551.0	155.6
552.0	160.0
553.0	163.2
554.0	168.3
555.0	156.5
556.0	147.8
557.0	152.9
558.0	154.2
559.0	143.9
560.0	134.3
561.0	135.5
562.0	151.1
563.0	138.7
564.0	132.5
565.0	127.9
566.0	123.2
567.0	123.3
568.0	120.0
569.0	116.5
570.0	130.6
571.0	123.4
572.0	108.1
573.0	107.9
574.0	107.9
575.0	110.1
576.0	98.41
577.0	108.3
578.0	102.7
579.0	93.82
580.0	85.80
581.0	89.17
582.0	86.61
583.0	81.20
584.0	83.88
585.0	74.03
586.0	83.98
587.0	78.13
588.0	78.53
589.0	75.07
590.0	76.00
591.0	61.67
592.0	69.44
593.0	77.63
594.0	72.32
595.0	72.90
596.0	69.27
597.0	60.57
598.0	68.59
599.0	60.30
600.0	58.25
601.0	68.46
602.0	55.57
603.0	58.43
604.0	57.14
605.0	56.18
606.0	49.85
607.0	51.31
608.0	50.37
609.0	48.21
610.0	41.95
611.0	47.34
612.0	42.89
613.0	48.55
614.0	41.46
615.0	40.87
616.0	47.36
617.0	41.73
618.0	43.95
619.0	36.22
620.0	39.75
621.0	35.99
622.0	36.14
623.0	33.60
624.0	27.71
625.0	32.18
626.0	31.71
627.0	31.80
628.0	33.42
629.0	27.19
630.0	27.84
631.0	33.54
632.0	31.65
633.0	31.20
634.0	34.06
635.0	27.30
636.0	21.07
637.0	23.92
638.0	23.55
639.0	19.90
640.0	23.88
641.0	21.91
642.0	25.07
643.0	22.39
644.0	18.86
645.0	19.34
646.0	17.12
647.0	19.96
648.0	21.39
649.0	21.02
650.0	14.17
651.0	18.43
652.0	14.64
653.0	17.69
654.0	23.00
655.0	15.62
656.0	17.66
657.0	15.84
658.0	12.81
659.0	15.89
660.0	13.34
661.0	14.70
662.0	17.76
663.0	18.69
664.0	16.64
665.0	14.24
666.0	10.48
667.0	13.77
668.0	12.92
669.0	17.32
670.0	14.40
671.0	11.08
672.0	10.04
673.0	11.64
674.0	8.024
675.0	9.417
676.0	10.64
677.0	9.615
678.0	9.531
679.0	8.482
680.0	8.711
681.0	11.92
682.0	10.35
683.0	11.51
684.0	9.087
685.0	12.18
686.0	10.56
687.0	10.96
688.0	7.473
689.0	7.802
690.0	6.476
691.0	8.209
692.0	8.192
693.0	7.150
694.0	7.617
695.0	10.42
696.0	4.306
697.0	5.547
698.0	7.306
699.0	9.932
700.0	10.00
701.0	11.69
702.0	9.668
703.0	8.568
704.0	11.68
705.0	8.433
706.0	6.821
707.0	7.715
708.0	9.159
709.0	13.61
710.0	8.530
711.0	9.211
712.0	10.99
713.0	12.28
714.0	7.959
715.0	10.70
716.0	8.659
717.0	5.955
718.0	7.719
719.0	9.395
720.0	6.126
721.0	7.596
722.0	9.789
723.0	7.805
724.0	9.042
725.0	5.399
726.0	6.238
727.0	5.574
728.0	4.870
729.0	7.993
730.0	6.226
731.0	5.096
732.0	3.580
733.0	8.005
734.0	10.31
735.0	6.363
736.0	9.524
737.0	6.512
738.0	6.605
739.0	4.609
740.0	5.018
741.0	3.868
742.0	6.776
743.0	5.798
744.0	6.778
745.0	8.086
746.0	7.900
747.0	10.32
748.0	8.306
749.0	4.889
750.0	4.805
751.0	4.784
752.0	5.946
753.0	8.116
754.0	6.724
755.0	10.16
756.0	5.253
757.0	7.438
758.0	7.350
759.0	9.896
760.0	7.373
761.0	4.929
762.0	5.124
763.0	7.675
764.0	7.666
765.0	3.593
766.0	7.516
767.0	5.941
768.0	7.643
769.0	4.915
770.0	7.704
771.0	7.692
772.0	6.723
773.0	6.329
774.0	9.803
775.0	10.19
776.0	7.396
777.0	10.16
778.0	7.952
779.0	4.517
780.0	6.353

Sample:	'wa-2(EM)
File name:	20.FDS
Run Date:	'16:40:30, 07/11/2024
Operator:	WXH
Comment:	'

Instrument
Model:	F-4600 FL Spectrophotometer
Serial Number:	3080-002
ROM Version:	5J24000 02

Instrument Parameters
Measurement type:	Wavelength scan
Scan mode:	Emission
Data mode:	Fluorescence
EX WL:	460.0 nm
EM  Start WL:	480.0 nm
EM  End WL:	780.0 nm
Scan speed:	1200 nm/min
Delay:	0.0 s
EX Slit:	2.5 nm
EM Slit:	2.5 nm
PMT Voltage:	600 V
Response:	Auto 
Corrected spectra:	Off
Shutter control:	On

Peak integration
Integration method:	Rectangular
Sensitivity:	1
Threshold:	1.000

Peaks
No.	Valley(nm)	Valley(Data)
1	483.8	16.14
2	485.8	19.43
3	502.2	106.7
4	505.4	139.6
5	511.6	177.2
6	514.2	194.9
7	521.4	188.0
8	524.6	189.9
9	528.4	179.4
10	529.4	175.0
11	533.4	177.7
12	537.8	175.5
13	540.4	173.3
14	541.6	167.9
15	545.2	163.4
16	548.8	156.6
17	550.8	154.1
18	552.8	148.1
19	557.2	133.9
20	560.0	145.9
21	562.8	132.1
22	566.0	130.3
23	568.6	112.6
24	573.0	97.89
25	575.8	94.53
26	577.4	94.06
27	580.8	86.15
28	583.6	82.76
29	585.8	80.81
30	587.6	75.06
31	591.0	68.00
32	594.0	63.83
33	597.6	53.61
34	600.4	53.46
35	605.8	43.97
36	608.2	46.84
37	613.6	36.05
38	615.8	33.83
39	621.8	31.49
40	627.0	25.25
41	630.8	25.29
42	634.0	20.18
43	638.2	16.88
44	642.2	17.71
45	644.6	15.76
46	647.0	15.03
47	649.8	14.83
48	651.4	16.32
49	654.4	10.80
50	658.4	11.22
51	661.2	9.746
52	663.6	10.08
53	667.2	6.930
54	668.8	7.186
55	672.4	8.072
56	675.2	10.90
57	679.4	5.480
58	683.4	7.567
59	685.8	6.399
60	689.4	6.596
61	694.4	6.728
62	697.8	5.406
63	701.0	6.514
64	703.4	3.933
65	706.8	6.965
66	711.8	5.823
67	714.2	6.798
68	716.8	7.009
69	719.0	7.827
70	721.8	6.650
71	723.4	6.870
72	726.2	8.735
73	731.4	4.284
74	733.6	5.281
75	738.4	4.429
76	740.0	6.806
77	743.4	4.852
78	744.8	4.590
79	749.0	4.903
80	751.2	6.324
81	752.8	5.779
82	755.8	5.015
83	757.4	2.696
84	760.0	4.890
85	764.0	4.445
86	766.8	3.842
87	768.8	5.147
88	776.4	4.532
89	780.0	6.723

Data Points
nm	Data
480.0	12.22
481.0	15.42
482.0	18.87
483.0	18.60
484.0	19.97
485.0	22.10
486.0	19.59
487.0	22.83
488.0	25.47
489.0	28.62
490.0	39.03
491.0	35.47
492.0	50.21
493.0	54.31
494.0	62.15
495.0	58.96
496.0	73.75
497.0	80.88
498.0	80.44
499.0	95.08
500.0	112.3
501.0	117.6
502.0	116.3
503.0	122.0
504.0	139.0
505.0	150.4
506.0	153.8
507.0	173.6
508.0	181.7
509.0	191.1
510.0	183.3
511.0	186.6
512.0	196.3
513.0	211.1
514.0	201.8
515.0	206.7
516.0	225.1
517.0	219.7
518.0	207.2
519.0	212.1
520.0	217.3
521.0	203.2
522.0	197.7
523.0	213.3
524.0	201.2
525.0	193.1
526.0	202.3
527.0	188.4
528.0	183.5
529.0	197.1
530.0	190.2
531.0	183.4
532.0	193.8
533.0	195.0
534.0	188.9
535.0	198.8
536.0	188.8
537.0	176.7
538.0	176.2
539.0	192.9
540.0	181.9
541.0	193.2
542.0	173.1
543.0	183.6
544.0	168.5
545.0	168.6
546.0	180.8
547.0	173.6
548.0	160.1
549.0	167.0
550.0	155.2
551.0	157.6
552.0	166.7
553.0	150.8
554.0	170.8
555.0	159.0
556.0	154.0
557.0	137.1
558.0	142.5
559.0	159.4
560.0	145.9
561.0	156.9
562.0	144.3
563.0	137.3
564.0	137.3
565.0	131.8
566.0	130.3
567.0	133.8
568.0	128.3
569.0	123.8
570.0	119.6
571.0	111.5
572.0	104.9
573.0	97.89
574.0	97.76
575.0	103.8
576.0	102.0
577.0	97.95
578.0	102.4
579.0	100.9
580.0	100.9
581.0	95.15
582.0	92.47
583.0	85.08
584.0	92.76
585.0	83.82
586.0	85.08
587.0	85.19
588.0	78.97
589.0	77.41
590.0	79.74
591.0	68.00
592.0	72.95
593.0	71.29
594.0	63.83
595.0	68.30
596.0	63.04
597.0	62.67
598.0	61.67
599.0	60.98
600.0	60.58
601.0	58.77
602.0	68.60
603.0	52.66
604.0	50.81
605.0	52.58
606.0	45.43
607.0	51.83
608.0	49.13
609.0	54.94
610.0	52.18
611.0	52.47
612.0	42.59
613.0	41.08
614.0	44.91
615.0	42.55
616.0	35.73
617.0	44.80
618.0	43.61
619.0	40.92
620.0	42.88
621.0	38.20
622.0	31.62
623.0	34.67
624.0	36.26
625.0	35.74
626.0	34.37
627.0	25.25
628.0	31.23
629.0	33.40
630.0	34.83
631.0	27.50
632.0	27.65
633.0	30.78
634.0	20.18
635.0	28.35
636.0	21.85
637.0	22.11
638.0	19.40
639.0	19.56
640.0	23.64
641.0	20.56
642.0	18.08
643.0	19.27
644.0	20.67
645.0	16.82
646.0	22.27
647.0	15.03
648.0	18.87
649.0	21.13
650.0	17.33
651.0	19.06
652.0	18.97
653.0	17.45
654.0	14.15
655.0	11.66
656.0	13.47
657.0	16.63
658.0	16.96
659.0	13.39
660.0	14.63
661.0	10.69
662.0	15.47
663.0	13.72
664.0	12.45
665.0	13.44
666.0	10.64
667.0	7.499
668.0	10.56
669.0	9.697
670.0	14.30
671.0	11.75
672.0	11.24
673.0	14.56
674.0	16.02
675.0	12.03
676.0	13.86
677.0	13.52
678.0	12.58
679.0	8.506
680.0	12.51
681.0	11.42
682.0	13.07
683.0	10.89
684.0	9.972
685.0	13.41
686.0	8.489
687.0	12.01
688.0	12.37
689.0	9.422
690.0	11.40
691.0	11.85
692.0	13.43
693.0	9.552
694.0	8.791
695.0	8.348
696.0	8.506
697.0	7.554
698.0	5.525
699.0	9.479
700.0	8.370
701.0	6.514
702.0	7.256
703.0	4.574
704.0	8.288
705.0	8.920
706.0	7.936
707.0	7.597
708.0	7.929
709.0	10.20
710.0	10.58
711.0	8.768
712.0	6.003
713.0	8.312
714.0	7.110
715.0	9.594
716.0	8.798
717.0	8.495
718.0	9.861
719.0	7.827
720.0	10.32
721.0	8.075
722.0	7.295
723.0	9.476
724.0	7.851
725.0	8.568
726.0	8.909
727.0	12.28
728.0	7.762
729.0	7.427
730.0	5.034
731.0	4.986
732.0	7.408
733.0	5.864
734.0	7.280
735.0	6.513
736.0	6.951
737.0	5.886
738.0	5.478
739.0	10.55
740.0	6.806
741.0	8.353
742.0	7.695
743.0	7.726
744.0	6.720
745.0	6.205
746.0	9.592
747.0	7.289
748.0	7.517
749.0	4.903
750.0	7.530
751.0	8.379
752.0	8.156
753.0	7.810
754.0	6.957
755.0	8.352
756.0	6.801
757.0	6.228
758.0	6.182
759.0	8.487
760.0	4.890
761.0	8.393
762.0	7.671
763.0	7.201
764.0	4.445
765.0	6.229
766.0	5.143
767.0	5.341
768.0	8.544
769.0	6.653
770.0	6.331
771.0	7.220
772.0	7.472
773.0	7.780
774.0	8.986
775.0	4.037
776.0	4.706
777.0	8.566
778.0	6.978
779.0	6.612
780.0	6.723

Sample:	'wa-3(EM)
File name:	20.FDS
Run Date:	'16:41:00, 07/11/2024
Operator:	WXH
Comment:	'

Instrument
Model:	F-4600 FL Spectrophotometer
Serial Number:	3080-002
ROM Version:	5J24000 02

Instrument Parameters
Measurement type:	Wavelength scan
Scan mode:	Emission
Data mode:	Fluorescence
EX WL:	460.0 nm
EM  Start WL:	480.0 nm
EM  End WL:	780.0 nm
Scan speed:	1200 nm/min
Delay:	0.0 s
EX Slit:	2.5 nm
EM Slit:	2.5 nm
PMT Voltage:	600 V
Response:	Auto 
Corrected spectra:	Off
Shutter control:	On

Peak integration
Integration method:	Rectangular
Sensitivity:	1
Threshold:	1.000

Peaks
No.	Valley(nm)	Valley(Data)
1	502.4	115.8
2	516.2	193.5
3	519.0	192.0
4	520.6	198.2
5	524.6	196.2
6	531.0	178.9
7	536.0	173.3
8	539.0	178.5
9	542.6	159.9
10	544.6	162.6
11	547.0	156.1
12	550.0	152.8
13	554.6	153.2
14	556.8	148.5
15	562.0	132.5
16	565.4	123.1
17	567.8	122.5
18	573.8	100.0
19	578.2	89.87
20	581.4	83.49
21	583.0	81.15
22	587.0	76.38
23	589.0	71.26
24	593.8	62.66
25	597.4	49.20
26	600.0	57.29
27	607.4	43.56
28	610.8	37.47
29	614.8	39.02
30	619.0	36.38
31	625.8	29.32
32	627.6	29.79
33	632.2	21.10
34	637.4	21.06
35	641.2	20.75
36	645.8	16.34
37	647.4	16.36
38	649.2	13.25
39	651.4	12.49
40	655.4	13.77
41	657.4	12.29
42	660.8	13.04
43	664.8	10.63
44	666.8	11.13
45	670.2	9.449
46	672.2	9.309
47	674.4	7.146
48	678.2	7.678
49	679.8	5.772
50	683.2	6.103
51	685.4	8.575
52	689.6	5.038
53	697.2	6.078
54	701.4	4.190
55	703.4	4.401
56	704.8	6.047
57	708.0	6.118
58	712.0	4.507
59	713.8	3.130
60	715.8	3.709
61	718.6	5.600
62	721.6	4.815
63	725.4	4.294
64	726.8	3.148
65	729.0	3.976
66	732.8	3.751
67	735.0	4.916
68	742.6	4.479
69	746.4	5.883
70	747.6	5.153
71	750.8	6.784
72	754.6	5.569
73	758.8	4.902
74	763.0	4.267
75	764.8	3.543
76	769.0	5.111
77	774.4	4.272
78	777.2	4.295

Data Points
nm	Data
480.0	12.50
481.0	11.54
482.0	16.02
483.0	18.78
484.0	17.86
485.0	23.88
486.0	23.62
487.0	26.60
488.0	27.42
489.0	28.26
490.0	38.90
491.0	35.78
492.0	44.27
493.0	54.45
494.0	54.20
495.0	57.47
496.0	79.70
497.0	82.54
498.0	81.86
499.0	100.9
500.0	111.0
501.0	128.0
502.0	124.5
503.0	118.8
504.0	138.3
505.0	146.0
506.0	144.0
507.0	166.0
508.0	165.9
509.0	177.9
510.0	195.7
511.0	195.1
512.0	212.2
513.0	209.3
514.0	217.5
515.0	197.4
516.0	205.0
517.0	196.5
518.0	206.7
519.0	192.0
520.0	208.8
521.0	202.3
522.0	207.0
523.0	209.0
524.0	209.0
525.0	198.3
526.0	211.7
527.0	209.1
528.0	194.8
529.0	191.1
530.0	194.1
531.0	178.9
532.0	190.2
533.0	182.1
534.0	201.0
535.0	194.3
536.0	173.3
537.0	179.5
538.0	187.7
539.0	178.5
540.0	188.8
541.0	185.2
542.0	172.5
543.0	178.6
544.0	190.3
545.0	174.6
546.0	180.5
547.0	156.1
548.0	169.0
549.0	163.6
550.0	152.8
551.0	161.5
552.0	167.8
553.0	164.0
554.0	156.6
555.0	158.1
556.0	157.7
557.0	151.6
558.0	157.2
559.0	145.5
560.0	146.3
561.0	144.6
562.0	132.5
563.0	144.4
564.0	142.1
565.0	129.4
566.0	131.5
567.0	124.5
568.0	123.1
569.0	128.0
570.0	125.3
571.0	119.1
572.0	107.7
573.0	108.3
574.0	100.3
575.0	107.4
576.0	109.4
577.0	102.2
578.0	93.48
579.0	101.5
580.0	95.80
581.0	85.43
582.0	89.77
583.0	81.15
584.0	92.03
585.0	86.87
586.0	86.54
587.0	76.38
588.0	82.02
589.0	71.26
590.0	83.94
591.0	77.94
592.0	73.43
593.0	74.71
594.0	63.25
595.0	69.49
596.0	67.86
597.0	54.51
598.0	61.22
599.0	64.93
600.0	57.29
601.0	58.83
602.0	56.23
603.0	57.33
604.0	56.15
605.0	50.55
606.0	49.67
607.0	44.42
608.0	52.26
609.0	52.59
610.0	46.72
611.0	40.04
612.0	51.32
613.0	49.10
614.0	44.45
615.0	39.06
616.0	46.36
617.0	47.81
618.0	42.13
619.0	36.38
620.0	45.35
621.0	39.93
622.0	37.00
623.0	33.91
624.0	33.83
625.0	33.50
626.0	32.33
627.0	33.15
628.0	30.04
629.0	32.89
630.0	31.40
631.0	26.79
632.0	23.80
633.0	24.90
634.0	28.52
635.0	30.52
636.0	28.36
637.0	24.50
638.0	23.48
639.0	26.71
640.0	27.81
641.0	22.73
642.0	25.98
643.0	21.91
644.0	20.90
645.0	19.77
646.0	20.47
647.0	19.95
648.0	21.57
649.0	14.95
650.0	18.74
651.0	15.37
652.0	18.65
653.0	17.93
654.0	15.59
655.0	18.41
656.0	16.82
657.0	15.76
658.0	15.19
659.0	16.94
660.0	14.87
661.0	13.05
662.0	14.72
663.0	18.83
664.0	15.63
665.0	12.58
666.0	16.36
667.0	11.87
668.0	15.36
669.0	11.91
670.0	9.847
671.0	13.73
672.0	10.55
673.0	11.46
674.0	9.289
675.0	8.017
676.0	12.41
677.0	9.761
678.0	9.484
679.0	7.193
680.0	6.416
681.0	12.89
682.0	10.76
683.0	6.594
684.0	14.25
685.0	9.059
686.0	13.12
687.0	11.71
688.0	10.63
689.0	7.949
690.0	10.22
691.0	11.23
692.0	9.085
693.0	10.64
694.0	10.61
695.0	8.730
696.0	8.054
697.0	9.329
698.0	7.231
699.0	12.55
700.0	10.61
701.0	6.725
702.0	8.090
703.0	5.095
704.0	7.766
705.0	6.455
706.0	7.984
707.0	8.388
708.0	6.118
709.0	10.96
710.0	8.100
711.0	7.754
712.0	4.507
713.0	5.155
714.0	3.478
715.0	5.725
716.0	4.452
717.0	8.026
718.0	5.762
719.0	5.777
720.0	7.490
721.0	4.983
722.0	8.526
723.0	8.170
724.0	8.292
725.0	4.577
726.0	6.016
727.0	3.154
728.0	7.059
729.0	3.976
730.0	9.646
731.0	7.249
732.0	4.111
733.0	3.976
734.0	10.14
735.0	4.916
736.0	9.143
737.0	7.801
738.0	9.421
739.0	7.789
740.0	8.813
741.0	8.242
742.0	6.236
743.0	5.402
744.0	6.824
745.0	7.319
746.0	6.201
747.0	6.537
748.0	6.159
749.0	8.868
750.0	9.551
751.0	7.015
752.0	9.341
753.0	8.986
754.0	6.801
755.0	6.346
756.0	6.911
757.0	9.043
758.0	7.389
759.0	5.059
760.0	5.997
761.0	5.996
762.0	8.383
763.0	4.267
764.0	10.56
765.0	4.591
766.0	7.362
767.0	7.937
768.0	6.506
769.0	5.111
770.0	8.158
771.0	6.170
772.0	6.310
773.0	6.243
774.0	5.453
775.0	4.818
776.0	6.336
777.0	6.328
778.0	4.721
779.0	5.892
780.0	6.878

Sample:	'wa-4(EM)
File name:	20.FDS
Run Date:	'16:41:31, 07/11/2024
Operator:	WXH
Comment:	'

Instrument
Model:	F-4600 FL Spectrophotometer
Serial Number:	3080-002
ROM Version:	5J24000 02

Instrument Parameters
Measurement type:	Wavelength scan
Scan mode:	Emission
Data mode:	Fluorescence
EX WL:	460.0 nm
EM  Start WL:	480.0 nm
EM  End WL:	780.0 nm
Scan speed:	1200 nm/min
Delay:	0.0 s
EX Slit:	2.5 nm
EM Slit:	2.5 nm
PMT Voltage:	600 V
Response:	Auto 
Corrected spectra:	Off
Shutter control:	On

Peak integration
Integration method:	Rectangular
Sensitivity:	1
Threshold:	1.000

Peaks
No.	Valley(nm)	Valley(Data)
1	493.2	42.09
2	497.4	74.96
3	505.6	148.7
4	513.0	183.8
5	515.6	203.1
6	521.2	196.3
7	527.6	186.1
8	530.6	182.3
9	533.0	172.6
10	538.8	174.5
11	541.6	156.1
12	544.6	160.7
13	547.0	153.3
14	552.2	150.4
15	556.6	133.2
16	560.4	144.5
17	563.8	126.2
18	569.8	104.9
19	572.6	91.54
20	577.8	93.29
21	582.0	82.66
22	585.0	74.17
23	587.6	71.26
24	590.8	72.95
25	595.6	63.68
26	597.2	56.91
27	599.8	50.96
28	604.8	51.63
29	609.0	41.01
30	615.0	37.07
31	619.4	35.51
32	621.8	33.78
33	624.4	32.04
34	626.8	24.88
35	628.8	25.65
36	630.6	25.20
37	635.6	19.42
38	637.2	19.14
39	639.6	18.82
40	641.2	17.24
41	644.2	15.66
42	647.2	14.88
43	649.8	16.21
44	652.6	14.38
45	656.6	14.05
46	661.2	11.07
47	664.6	10.49
48	674.4	8.927
49	679.8	8.714
50	683.4	7.713
51	685.0	8.032
52	687.4	8.522
53	691.0	5.677
54	694.2	7.325
55	696.4	7.183
56	698.6	9.099
57	700.8	7.246
58	702.2	4.741
59	704.2	2.958
60	708.0	6.647
61	711.4	4.453
62	714.4	5.165
63	719.2	4.904
64	721.6	3.632
65	723.8	6.070
66	727.6	2.423
67	732.8	5.850
68	734.4	4.109
69	737.0	5.862
70	743.4	2.269
71	748.6	4.414
72	754.0	4.815
73	755.8	3.649
74	759.4	4.123
75	761.2	4.088
76	763.4	2.290
77	768.2	3.889
78	772.8	5.855
79	776.2	4.465
80	780.0	7.307

Data Points
nm	Data
480.0	22.74
481.0	15.94
482.0	15.29
483.0	16.55
484.0	14.88
485.0	14.78
486.0	20.19
487.0	20.74
488.0	23.76
489.0	23.98
490.0	32.51
491.0	38.19
492.0	49.44
493.0	44.56
494.0	59.70
495.0	70.08
496.0	78.59
497.0	80.26
498.0	79.51
499.0	87.81
500.0	117.5
501.0	118.6
502.0	121.7
503.0	135.6
504.0	149.6
505.0	153.4
506.0	148.8
507.0	171.7
508.0	175.6
509.0	187.5
510.0	182.2
511.0	193.7
512.0	199.9
513.0	183.8
514.0	225.8
515.0	217.5
516.0	206.3
517.0	213.0
518.0	199.0
519.0	207.8
520.0	202.3
521.0	212.5
522.0	208.6
523.0	201.4
524.0	214.4
525.0	203.1
526.0	193.1
527.0	193.1
528.0	200.3
529.0	192.8
530.0	187.1
531.0	191.2
532.0	194.0
533.0	172.6
534.0	178.9
535.0	183.0
536.0	181.1
537.0	183.8
538.0	181.2
539.0	178.2
540.0	184.9
541.0	161.4
542.0	162.7
543.0	170.2
544.0	173.1
545.0	163.6
546.0	176.4
547.0	153.3
548.0	180.5
549.0	177.5
550.0	168.7
551.0	169.3
552.0	157.1
553.0	153.6
554.0	156.2
555.0	159.8
556.0	161.2
557.0	135.9
558.0	145.9
559.0	148.6
560.0	152.1
561.0	144.8
562.0	160.1
563.0	133.1
564.0	128.7
565.0	132.5
566.0	146.7
567.0	136.8
568.0	120.5
569.0	117.4
570.0	113.9
571.0	117.2
572.0	104.5
573.0	105.7
574.0	107.2
575.0	110.6
576.0	101.7
577.0	106.6
578.0	97.19
579.0	114.8
580.0	99.20
581.0	97.52
582.0	82.66
583.0	98.42
584.0	83.90
585.0	74.17
586.0	92.04
587.0	87.36
588.0	76.07
589.0	81.54
590.0	81.80
591.0	74.94
592.0	79.34
593.0	79.22
594.0	70.58
595.0	71.00
596.0	73.38
597.0	63.28
598.0	68.37
599.0	58.32
600.0	55.96
601.0	51.25
602.0	60.57
603.0	63.26
604.0	56.79
605.0	54.08
606.0	55.83
607.0	53.56
608.0	53.79
609.0	41.01
610.0	48.56
611.0	45.86
612.0	44.63
613.0	45.59
614.0	41.05
615.0	37.07
616.0	45.43
617.0	43.58
618.0	48.74
619.0	42.42
620.0	37.43
621.0	38.79
622.0	33.87
623.0	38.09
624.0	36.05
625.0	37.78
626.0	29.73
