Sample:	'wa-1(EM)
File name:	30.FDS
Run Date:	'16:18:50, 07/11/2024
Operator:	WXH
Comment:	'

Instrument
Model:	F-4600 FL Spectrophotometer
Serial Number:	3080-002
ROM Version:	5J24000 02

Instrument Parameters
Measurement type:	Wavelength scan
Scan mode:	Emission
Data mode:	Fluorescence
EX WL:	460.0 nm
EM  Start WL:	480.0 nm
EM  End WL:	780.0 nm
Scan speed:	1200 nm/min
Delay:	0.0 s
EX Slit:	2.5 nm
EM Slit:	2.5 nm
PMT Voltage:	600 V
Response:	Auto 
Corrected spectra:	Off
Shutter control:	On

Peak integration
Integration method:	Rectangular
Sensitivity:	1
Threshold:	1.000

Peaks
No.	Valley(nm)	Valley(Data)
1	483.6	36.43
2	488.4	45.20
3	491.4	61.55
4	505.8	199.6
5	511.4	243.8
6	516.4	270.1
7	518.4	261.8
8	521.2	272.2
9	524.8	251.1
10	528.2	252.0
11	533.2	256.9
12	538.4	228.6
13	542.8	220.0
14	546.4	206.6
15	549.2	211.4
16	551.2	210.6
17	554.8	199.6
18	557.6	194.4
19	559.4	184.5
20	562.8	169.4
21	564.6	174.1
22	570.8	149.5
23	576.8	131.2
24	582.0	114.1
25	583.8	107.9
26	589.8	95.58
27	592.2	86.70
28	596.6	77.80
29	598.4	73.65
30	601.0	70.19
31	605.2	66.22
32	610.2	51.08
33	615.6	47.90
34	618.4	44.63
35	624.2	37.30
36	625.8	39.32
37	629.6	29.95
38	639.6	22.14
39	642.6	22.35
40	645.6	20.12
41	648.0	18.96
42	651.2	18.54
43	654.0	18.01
44	657.8	11.67
45	661.2	12.29
46	665.0	14.34
47	666.6	12.64
48	670.4	10.09
49	672.2	8.399
50	677.0	8.989
51	678.6	8.744
52	682.4	9.490
53	685.4	7.608
54	688.8	9.519
55	690.0	9.005
56	693.6	6.316
57	695.2	5.701
58	701.2	4.131
59	706.0	4.338
60	708.2	4.152
61	709.8	5.064
62	712.4	3.601
63	718.8	4.731
64	724.4	3.861
65	731.0	3.853
66	734.2	3.945
67	737.6	4.640
68	740.8	7.562
69	743.0	4.085
70	747.0	2.783
71	752.6	2.909
72	760.0	5.907
73	764.6	5.705
74	765.8	5.837
75	770.4	4.256
76	773.8	5.242
77	777.6	4.446

Data Points
nm	Data
480.0	35.54
481.0	35.04
482.0	37.32
483.0	40.79
484.0	37.99
485.0	40.24
486.0	45.00
487.0	46.53
488.0	48.73
489.0	51.60
490.0	66.47
491.0	71.41
492.0	64.17
493.0	75.28
494.0	86.59
495.0	99.32
496.0	107.2
497.0	114.2
498.0	126.8
499.0	129.7
500.0	135.0
501.0	141.8
502.0	164.2
503.0	181.0
504.0	194.9
505.0	200.9
506.0	200.9
507.0	216.4
508.0	228.3
509.0	249.7
510.0	250.4
511.0	258.2
512.0	250.0
513.0	261.8
514.0	294.2
515.0	290.0
516.0	276.0
517.0	294.9
518.0	287.6
519.0	279.4
520.0	277.8
521.0	274.5
522.0	286.3
523.0	274.7
524.0	284.1
525.0	265.2
526.0	277.5
527.0	266.4
528.0	258.0
529.0	261.9
530.0	262.6
531.0	262.2
532.0	259.2
533.0	257.4
534.0	263.1
535.0	258.6
536.0	249.8
537.0	241.8
538.0	252.6
539.0	238.7
540.0	242.7
541.0	230.8
542.0	239.1
543.0	220.4
544.0	227.5
545.0	222.6
546.0	225.1
547.0	220.7
548.0	220.5
549.0	222.2
550.0	224.9
551.0	213.7
552.0	220.2
553.0	214.1
554.0	217.6
555.0	212.7
556.0	209.5
557.0	198.8
558.0	205.5
559.0	192.7
560.0	209.7
561.0	200.2
562.0	185.1
563.0	174.3
564.0	184.6
565.0	176.7
566.0	175.1
567.0	167.8
568.0	163.3
569.0	163.7
570.0	155.0
571.0	158.3
572.0	166.6
573.0	154.0
574.0	156.6
575.0	146.0
576.0	134.2
577.0	136.9
578.0	128.4
579.0	129.5
580.0	119.6
581.0	118.2
582.0	114.1
583.0	115.8
584.0	112.4
585.0	110.2
586.0	112.2
587.0	109.6
588.0	110.2
589.0	103.2
590.0	99.42
591.0	106.5
592.0	88.67
593.0	99.97
594.0	91.94
595.0	92.31
596.0	88.22
597.0	85.61
598.0	79.28
599.0	78.76
600.0	77.44
601.0	70.19
602.0	72.88
603.0	73.86
604.0	80.83
605.0	68.24
606.0	71.18
607.0	72.33
608.0	59.76
609.0	67.07
610.0	58.38
611.0	58.95
612.0	56.74
613.0	59.30
614.0	58.39
615.0	52.69
616.0	54.36
617.0	55.11
618.0	48.77
619.0	47.75
620.0	49.87
621.0	50.15
622.0	46.05
623.0	48.97
624.0	38.54
625.0	44.06
626.0	39.94
627.0	44.94
628.0	37.55
629.0	38.55
630.0	35.16
631.0	33.99
632.0	36.36
633.0	35.83
634.0	33.30
635.0	30.72
636.0	29.29
637.0	30.75
638.0	33.33
639.0	27.86
640.0	28.11
641.0	27.15
642.0	25.51
643.0	28.94
644.0	27.24
645.0	21.86
646.0	20.98
647.0	22.93
648.0	18.96
649.0	25.86
650.0	22.80
651.0	19.72
652.0	19.10
653.0	21.77
654.0	18.01
655.0	19.12
656.0	15.02
657.0	16.12
658.0	12.50
659.0	18.10
660.0	16.89
661.0	12.52
662.0	15.22
663.0	16.62
664.0	16.52
665.0	14.34
666.0	16.41
667.0	18.90
668.0	18.61
669.0	13.54
670.0	11.32
671.0	10.54
672.0	9.720
673.0	13.83
674.0	18.38
675.0	12.96
676.0	13.56
677.0	8.989
678.0	12.55
679.0	10.73
680.0	10.99
681.0	10.56
682.0	10.52
683.0	11.95
684.0	9.352
685.0	8.897
686.0	8.494
687.0	11.94
688.0	10.07
689.0	11.46
690.0	9.005
691.0	11.27
692.0	9.082
693.0	7.140
694.0	9.906
695.0	8.486
696.0	6.480
697.0	7.312
698.0	9.337
699.0	8.969
700.0	8.743
701.0	5.536
702.0	7.823
703.0	10.93
704.0	9.516
705.0	6.070
706.0	4.338
707.0	7.238
708.0	5.197
709.0	6.144
710.0	6.415
711.0	8.793
712.0	4.773
713.0	5.343
714.0	7.134
715.0	6.862
716.0	6.298
717.0	5.707
718.0	5.641
719.0	6.344
720.0	6.752
721.0	7.062
722.0	9.496
723.0	5.371
724.0	4.539
725.0	5.412
726.0	5.985
727.0	6.817
728.0	7.772
729.0	7.529
730.0	5.566
731.0	3.853
732.0	6.114
733.0	4.062
734.0	4.905
735.0	4.502
736.0	8.320
737.0	6.225
738.0	7.522
739.0	5.991
740.0	7.999
741.0	7.772
742.0	9.579
743.0	4.085
744.0	6.966
745.0	5.633
746.0	5.579
747.0	2.783
748.0	4.210
749.0	5.958
750.0	7.261
751.0	5.958
752.0	7.289
753.0	4.566
754.0	6.194
755.0	8.399
756.0	5.348
757.0	8.079
758.0	7.056
759.0	6.549
760.0	5.907
761.0	8.373
762.0	6.526
763.0	8.982
764.0	6.087
765.0	9.696
766.0	6.310
767.0	6.204
768.0	6.824
769.0	7.112
770.0	4.935
771.0	6.242
772.0	8.935
773.0	5.905
774.0	5.504
775.0	9.046
776.0	7.779
777.0	5.078
778.0	7.060
779.0	4.671
780.0	7.351

Sample:	'wa-2(EM)
File name:	30.FDS
Run Date:	'16:19:20, 07/11/2024
Operator:	WXH
Comment:	'

Instrument
Model:	F-4600 FL Spectrophotometer
Serial Number:	3080-002
ROM Version:	5J24000 02

Instrument Parameters
Measurement type:	Wavelength scan
Scan mode:	Emission
Data mode:	Fluorescence
EX WL:	460.0 nm
EM  Start WL:	480.0 nm
EM  End WL:	780.0 nm
Scan speed:	1200 nm/min
Delay:	0.0 s
EX Slit:	2.5 nm
EM Slit:	2.5 nm
PMT Voltage:	600 V
Response:	Auto 
Corrected spectra:	Off
Shutter control:	On

Peak integration
Integration method:	Rectangular
Sensitivity:	1
Threshold:	1.000

Peaks
No.	Valley(nm)	Valley(Data)
1	484.4	34.25
2	486.8	39.56
3	491.4	56.49
4	504.6	189.3
5	507.0	202.2
6	515.6	263.8
7	522.6	267.7
8	526.4	256.2
9	533.2	246.4
10	537.2	243.0
11	540.8	224.0
12	544.2	219.2
13	551.2	207.5
14	553.8	204.3
15	558.2	190.6
16	562.6	183.1
17	566.0	169.3
18	570.0	150.9
19	574.0	136.7
20	578.0	116.2
21	585.6	101.3
22	591.0	83.22
23	597.8	74.94
24	601.2	64.43
25	603.6	63.45
26	609.6	58.19
27	616.4	47.82
28	619.8	43.10
29	622.6	39.14
30	626.0	38.54
31	627.6	36.60
32	630.4	34.22
33	632.0	31.57
34	634.0	27.46
35	636.8	22.98
36	642.4	22.59
37	647.4	19.11
38	653.8	16.84
39	656.0	14.27
40	657.8	16.14
41	659.2	15.73
42	661.0	15.95
43	663.8	13.41
44	668.8	11.15
45	670.6	12.72
46	673.8	10.93
47	678.6	7.069
48	682.2	8.684
49	684.6	8.237
50	687.6	5.891
51	689.8	6.099
52	693.2	6.232
53	697.0	6.947
54	699.2	5.513
55	704.2	5.056
56	708.0	7.200
57	710.8	5.349
58	713.6	3.689
59	719.8	4.994
60	724.4	6.140
61	727.2	4.551
62	733.4	4.632
63	735.0	3.875
64	738.2	4.906
65	741.2	4.921
66	745.2	4.912
67	749.4	4.230
68	752.2	4.177
69	755.4	4.722
70	758.6	3.482
71	761.8	2.540
72	763.4	4.170
73	767.4	4.180
74	770.2	3.287
75	773.0	2.484
76	778.4	3.261

Data Points
nm	Data
480.0	42.13
481.0	36.30
482.0	41.16
483.0	38.58
484.0	34.40
485.0	41.76
486.0	46.57
487.0	40.51
488.0	47.45
489.0	59.23
490.0	59.97
491.0	59.36
492.0	65.59
493.0	68.95
494.0	84.65
495.0	96.53
496.0	104.8
497.0	111.3
498.0	128.1
499.0	134.4
500.0	149.7
501.0	156.6
502.0	167.2
503.0	193.8
504.0	192.1
505.0	202.3
506.0	224.8
507.0	202.2
508.0	226.8
509.0	237.9
510.0	253.8
511.0	257.4
512.0	256.4
513.0	280.1
514.0	278.7
515.0	276.6
516.0	284.3
517.0	286.9
518.0	282.1
519.0	287.8
520.0	285.3
521.0	286.6
522.0	268.7
523.0	275.9
524.0	276.3
525.0	267.2
526.0	269.0
527.0	267.6
528.0	269.5
529.0	264.5
530.0	262.5
531.0	267.3
532.0	255.9
533.0	248.4
534.0	261.3
535.0	251.7
536.0	249.5
537.0	244.3
538.0	253.4
539.0	246.1
540.0	245.3
541.0	225.3
542.0	233.8
543.0	229.8
544.0	228.3
545.0	235.9
546.0	228.2
547.0	232.0
548.0	225.6
549.0	217.9
550.0	212.0
551.0	208.5
552.0	226.9
553.0	208.1
554.0	209.5
555.0	221.0
556.0	217.2
557.0	208.9
558.0	201.2
559.0	213.2
560.0	204.9
561.0	179.7
562.0	196.9
563.0	198.6
564.0	183.3
565.0	178.8
566.0	169.3
567.0	175.0
568.0	171.3
569.0	170.9
570.0	150.9
571.0	160.1
572.0	156.6
573.0	141.6
574.0	136.7
575.0	144.4
576.0	149.2
577.0	141.5
578.0	116.2
579.0	128.9
580.0	133.5
581.0	136.9
582.0	130.3
583.0	121.0
584.0	108.0
585.0	110.1
586.0	103.5
587.0	110.3
588.0	108.6
589.0	102.1
590.0	90.79
591.0	83.22
592.0	88.18
593.0	96.68
594.0	84.70
595.0	83.52
596.0	80.63
597.0	81.17
598.0	74.97
599.0	77.12
600.0	85.11
601.0	71.01
602.0	72.60
603.0	69.03
604.0	69.15
605.0	72.13
606.0	69.34
607.0	76.29
608.0	65.70
609.0	58.67
610.0	66.04
611.0	60.94
612.0	59.36
613.0	59.76
614.0	60.89
615.0	51.96
616.0	56.04
617.0	58.13
618.0	56.24
619.0	58.14
620.0	49.67
621.0	48.29
622.0	47.88
623.0	39.27
624.0	40.01
625.0	43.32
626.0	38.54
627.0	44.40
628.0	40.48
629.0	45.24
630.0	34.27
631.0	36.57
632.0	31.57
633.0	37.22
634.0	27.46
635.0	29.38
636.0	28.19
637.0	30.33
638.0	27.57
639.0	33.70
640.0	28.23
641.0	23.94
642.0	27.73
643.0	29.01
644.0	31.82
645.0	26.95
646.0	21.37
647.0	21.83
648.0	24.60
649.0	23.86
650.0	23.26
651.0	21.96
652.0	18.28
653.0	18.66
654.0	17.30
655.0	17.76
656.0	14.27
657.0	22.17
658.0	17.79
659.0	18.44
660.0	19.11
661.0	15.95
662.0	21.38
663.0	15.86
664.0	14.32
665.0	14.11
666.0	16.43
667.0	12.33
668.0	13.62
669.0	14.37
670.0	17.08
671.0	12.90
672.0	11.97
673.0	11.89
674.0	12.98
675.0	15.93
676.0	12.29
677.0	11.45
678.0	8.532
679.0	14.89
680.0	11.63
681.0	12.49
682.0	9.659
683.0	11.56
684.0	9.411
685.0	8.638
686.0	11.64
687.0	12.53
688.0	8.040
689.0	12.10
690.0	8.280
691.0	12.12
692.0	8.956
693.0	6.830
694.0	9.719
695.0	12.13
696.0	11.12
697.0	6.947
698.0	7.022
699.0	6.882
700.0	7.083
701.0	11.60
702.0	6.943
703.0	7.937
704.0	6.670
705.0	5.128
706.0	8.475
707.0	11.06
708.0	7.200
709.0	9.170
710.0	6.391
711.0	7.011
712.0	7.655
713.0	7.670
714.0	6.490
715.0	7.060
716.0	8.488
717.0	8.635
718.0	7.176
719.0	8.531
720.0	6.423
721.0	8.648
722.0	8.783
723.0	6.881
724.0	8.661
725.0	8.000
726.0	9.030
727.0	5.647
728.0	7.105
729.0	9.003
730.0	6.370
731.0	7.878
732.0	6.361
733.0	4.933
734.0	7.275
735.0	3.875
736.0	7.146
737.0	6.283
738.0	5.936
739.0	7.322
740.0	5.829
741.0	5.036
742.0	7.250
743.0	8.067
744.0	8.478
745.0	6.749
746.0	9.468
747.0	8.522
748.0	6.147
749.0	5.091
750.0	6.012
751.0	6.391
752.0	4.414
753.0	8.321
754.0	11.13
755.0	5.443
756.0	6.142
757.0	7.207
758.0	5.677
759.0	3.887
760.0	5.168
761.0	5.478
762.0	4.326
763.0	5.507
764.0	4.889
765.0	6.439
766.0	9.141
767.0	6.409
768.0	4.923
769.0	5.533
770.0	4.555
771.0	7.425
772.0	6.112
773.0	2.484
774.0	7.131
775.0	8.763
776.0	5.709
777.0	6.573
778.0	4.360
779.0	5.176
780.0	6.145

Sample:	'wa-3(EM)
File name:	30.FDS
Run Date:	'16:19:50, 07/11/2024
Operator:	WXH
Comment:	'

Instrument
Model:	F-4600 FL Spectrophotometer
Serial Number:	3080-002
ROM Version:	5J24000 02

Instrument Parameters
Measurement type:	Wavelength scan
Scan mode:	Emission
Data mode:	Fluorescence
EX WL:	460.0 nm
EM  Start WL:	480.0 nm
EM  End WL:	780.0 nm
Scan speed:	1200 nm/min
Delay:	0.0 s
EX Slit:	2.5 nm
EM Slit:	2.5 nm
PMT Voltage:	600 V
Response:	Auto 
Corrected spectra:	Off
Shutter control:	On

Peak integration
Integration method:	Rectangular
Sensitivity:	1
Threshold:	1.000

Peaks
No.	Valley(nm)	Valley(Data)
1	481.4	31.77
2	485.4	36.80
3	511.2	247.3
4	516.4	262.5
5	518.4	265.3
6	522.8	260.4
7	526.0	266.2
8	528.0	252.8
9	533.8	231.8
10	537.8	238.2
11	539.8	228.7
12	544.8	217.3
13	546.8	212.1
14	550.6	213.3
15	557.4	178.8
16	563.0	175.0
17	567.2	154.9
18	570.8	149.6
19	572.2	139.2
20	579.0	121.8
21	581.6	112.0
22	589.8	88.79
23	595.6	80.27
24	600.8	69.39
25	603.2	65.26
26	609.8	55.32
27	614.4	52.95
28	617.2	45.35
29	621.8	46.78
30	626.0	34.42
31	629.2	33.06
32	632.4	27.80
33	635.6	25.21
34	643.0	22.10
35	647.2	18.61
36	650.2	17.62
37	654.2	13.81
38	657.6	15.31
39	660.2	11.53
40	665.2	9.980
41	669.2	13.19
42	674.6	9.115
43	678.8	6.253
44	685.4	6.725
45	689.6	8.646
46	692.6	7.106
47	697.2	5.759
48	699.2	7.929
49	703.0	5.562
50	705.2	5.961
51	707.8	4.555
52	711.8	3.246
53	717.6	3.994
54	719.8	6.871
55	722.2	5.852
56	723.8	4.914
57	728.2	3.475
58	732.2	2.172
59	737.8	5.263
60	744.6	2.917
61	746.8	5.481
62	750.6	4.045
63	752.8	3.446
64	756.4	4.178
65	759.0	4.775
66	761.0	4.716
67	768.0	4.293
68	770.6	3.776
69	773.0	5.190
70	776.6	2.714

Data Points
nm	Data
480.0	35.35
481.0	37.06
482.0	35.96
483.0	41.86
484.0	43.46
485.0	40.14
486.0	40.03
487.0	45.03
488.0	47.47
489.0	66.92
490.0	61.83
491.0	65.91
492.0	75.29
493.0	69.96
494.0	82.98
495.0	86.91
496.0	94.75
497.0	117.0
498.0	120.8
499.0	132.2
500.0	153.9
501.0	154.1
502.0	164.0
503.0	186.0
504.0	202.3
505.0	210.8
506.0	220.3
507.0	224.7
508.0	229.2
509.0	243.3
510.0	247.6
511.0	247.8
512.0	255.3
513.0	245.5
514.0	298.2
515.0	284.3
516.0	285.2
517.0	280.6
518.0	280.5
519.0	277.9
520.0	274.6
521.0	277.0
522.0	281.7
523.0	268.4
524.0	294.3
525.0	278.6
526.0	266.2
527.0	272.0
528.0	252.8
529.0	270.1
530.0	270.7
531.0	285.4
532.0	244.5
533.0	256.4
534.0	239.0
535.0	253.2
536.0	233.8
537.0	239.7
538.0	249.2
539.0	242.7
540.0	238.8
541.0	237.6
542.0	243.7
543.0	256.4
544.0	228.5
545.0	223.1
546.0	236.6
547.0	217.7
548.0	230.2
549.0	235.0
550.0	225.5
551.0	224.1
552.0	225.2
553.0	220.7
554.0	202.3
555.0	208.5
556.0	212.8
557.0	194.7
558.0	195.5
559.0	196.2
560.0	184.6
561.0	192.7
562.0	185.7
563.0	175.0
564.0	183.0
565.0	173.3
566.0	177.5
567.0	161.4
568.0	183.4
569.0	164.7
570.0	154.9
571.0	154.0
572.0	142.2
573.0	146.1
574.0	151.5
575.0	137.2
576.0	134.9
577.0	135.9
578.0	128.3
579.0	121.8
580.0	138.0
581.0	114.7
582.0	120.1
583.0	119.5
584.0	115.4
585.0	115.3
586.0	115.1
587.0	108.5
588.0	102.9
589.0	88.85
590.0	95.17
591.0	89.48
592.0	106.3
593.0	90.48
594.0	93.97
595.0	92.13
596.0	83.88
597.0	90.30
598.0	89.04
599.0	86.07
600.0	77.77
601.0	75.93
602.0	75.81
603.0	66.47
604.0	67.79
605.0	74.37
606.0	71.87
607.0	62.28
608.0	66.56
609.0	62.23
610.0	60.12
611.0	69.01
612.0	63.03
613.0	54.11
614.0	55.61
615.0	55.98
616.0	58.73
617.0	52.36
618.0	51.61
619.0	55.39
620.0	53.08
621.0	51.60
622.0	51.26
623.0	51.55
624.0	48.04
625.0	40.76
626.0	34.42
627.0	42.15
628.0	42.53
629.0	36.36
630.0	40.07
631.0	34.65
632.0	29.59
633.0	34.40
634.0	36.00
635.0	29.17
636.0	29.75
637.0	29.39
638.0	33.25
639.0	29.32
640.0	26.28
641.0	25.60
642.0	24.87
643.0	22.10
644.0	27.14
645.0	25.97
646.0	20.80
647.0	20.08
648.0	21.61
649.0	22.88
650.0	21.80
651.0	23.03
652.0	20.51
653.0	16.12
654.0	14.91
655.0	19.86
656.0	24.45
657.0	18.10
658.0	20.27
659.0	15.76
660.0	12.65
661.0	18.10
662.0	18.92
663.0	16.72
664.0	14.80
665.0	10.18
666.0	10.72
667.0	15.19
668.0	16.49
669.0	13.78
670.0	15.27
671.0	12.95
672.0	19.15
673.0	13.56
674.0	12.71
675.0	10.94
676.0	12.64
677.0	12.42
678.0	13.45
679.0	7.153
680.0	10.68
681.0	10.20
682.0	12.88
683.0	11.25
684.0	7.828
685.0	9.875
686.0	6.997
687.0	7.483
688.0	10.42
689.0	12.20
690.0	9.123
691.0	9.230
692.0	8.751
693.0	7.425
694.0	11.73
695.0	10.33
696.0	9.170
697.0	6.822
698.0	11.63
699.0	9.346
700.0	10.16
701.0	7.861
702.0	7.029
703.0	5.562
704.0	7.489
705.0	7.022
706.0	8.281
707.0	6.571
708.0	6.291
709.0	8.612
710.0	7.476
711.0	5.653
712.0	4.117
713.0	4.534
714.0	6.260
715.0	6.591
716.0	9.115
717.0	8.741
718.0	7.647
719.0	9.141
720.0	7.123
721.0	8.591
722.0	6.755
723.0	9.351
724.0	5.634
725.0	8.678
726.0	5.108
727.0	4.799
728.0	4.477
729.0	4.592
730.0	7.365
731.0	3.493
732.0	2.354
733.0	4.881
734.0	6.177
735.0	7.489
736.0	8.278
737.0	7.290
738.0	5.915
739.0	5.500
740.0	6.094
741.0	11.45
742.0	7.026
743.0	6.013
744.0	5.256
745.0	4.921
746.0	6.481
747.0	7.011
748.0	8.534
749.0	7.342
750.0	5.570
751.0	5.891
752.0	4.532
753.0	6.083
754.0	7.177
755.0	7.556
756.0	6.269
757.0	4.441
758.0	8.292
759.0	4.775
760.0	7.753
761.0	4.716
762.0	7.079
763.0	8.890
764.0	7.131
765.0	10.01
766.0	7.046
767.0	8.180
768.0	4.293
769.0	6.668
770.0	7.544
771.0	8.787
772.0	6.127
773.0	5.190
774.0	7.971
775.0	6.042
776.0	4.421
777.0	3.869
778.0	4.125
779.0	6.967
780.0	5.264

Sample:	'wa-4(EM)
File name:	30.FDS
Run Date:	'16:20:20, 07/11/2024
Operator:	WXH
Comment:	'

Instrument
Model:	F-4600 FL Spectrophotometer
Serial Number:	3080-002
ROM Version:	5J24000 02

Instrument Parameters
Measurement type:	Wavelength scan
Scan mode:	Emission
Data mode:	Fluorescence
EX WL:	460.0 nm
EM  Start WL:	480.0 nm
EM  End WL:	780.0 nm
Scan speed:	1200 nm/min
Delay:	0.0 s
EX Slit:	2.5 nm
EM Slit:	2.5 nm
PMT Voltage:	600 V
Response:	Auto 
Corrected spectra:	Off
Shutter control:	On

Peak integration
Integration method:	Rectangular
Sensitivity:	1
Threshold:	1.000

Peaks
No.	Valley(nm)	Valley(Data)
1	485.0	38.33
2	490.0	51.50
3	512.2	257.4
4	517.0	272.1
5	522.8	257.7
6	524.6	259.5
7	526.8	261.7
8	528.8	254.4
9	533.4	238.0
10	540.4	231.4
11	543.2	232.8
12	546.8	209.1
13	551.2	215.8
14	553.8	192.7
15	556.0	187.2
16	561.6	171.2
17	564.6	159.7
18	569.2	158.6
19	571.8	145.3
20	578.0	129.3
21	581.2	118.0
22	585.0	100.3
23	586.6	96.22
24	591.6	85.74
25	594.8	86.01
26	596.8	81.06
27	598.8	66.78
28	601.8	68.16
29	604.8	64.51
30	608.0	56.51
31	614.4	50.53
32	616.4	48.36
33	619.2	43.58
34	622.2	43.08
35	624.6	40.17
36	627.2	36.30
37	630.8	29.80
38	633.0	29.06
39	635.2	24.68
40	640.2	23.28
41	644.6	16.17
42	646.6	19.26
43	649.0	17.28
44	652.6	18.38
45	657.4	16.93
46	660.0	11.52
47	664.2	10.83
48	669.2	5.642
49	672.6	9.681
50	675.8	9.229
51	678.8	8.352
52	682.4	8.709
53	685.0	8.336
54	688.0	7.220
55	692.4	6.191
56	694.2	5.101
57	697.6	4.491
58	701.4	6.598
59	703.0	5.875
60	705.6	3.189
61	711.2	8.174
62	716.4	5.754
63	723.2	2.803
64	728.4	4.198
65	730.2	4.536
66	732.0	4.863
67	737.2	2.943
68	739.2	3.211
69	741.8	3.179
70	744.8	4.166
71	748.4	3.654
72	749.6	4.251
73	752.4	2.855
74	756.2	5.290
75	759.0	4.053
76	762.8	4.541
77	766.4	2.018
78	770.0	3.576
79	773.8	5.091
80	776.4	5.300
81	777.8	4.595

Data Points
nm	Data
480.0	34.84
481.0	34.31
482.0	36.63
483.0	38.74
484.0	47.01
485.0	38.33
486.0	41.36
487.0	46.67
488.0	51.71
489.0	54.92
490.0	51.50
491.0	64.41
492.0	72.93
493.0	73.78
494.0	82.44
495.0	98.16
496.0	97.04
497.0	105.8
498.0	129.1
499.0	138.2
500.0	151.8
501.0	164.2
502.0	152.8
503.0	175.6
504.0	197.2
505.0	188.5
506.0	214.0
507.0	212.6
508.0	235.7
509.0	239.3
510.0	246.4
511.0	250.5
512.0	261.7
513.0	268.5
514.0	276.7
515.0	277.0
516.0	286.0
517.0	272.1
518.0	284.3
519.0	283.1
520.0	282.5
521.0	285.3
522.0	285.4
523.0	266.8
524.0	260.2
525.0	264.5
526.0	274.1
527.0	264.1
528.0	276.0
529.0	267.2
530.0	274.9
531.0	265.4
532.0	259.0
533.0	250.8
534.0	250.0
535.0	253.5
536.0	256.7
537.0	278.5
538.0	251.8
539.0	244.1
540.0	237.3
541.0	247.1
542.0	245.6
543.0	234.9
544.0	235.0
545.0	238.3
546.0	231.5
547.0	217.7
548.0	221.1
549.0	222.4
550.0	236.4
551.0	216.0
552.0	227.7
553.0	206.2
554.0	216.3
555.0	205.7
556.0	187.2
557.0	201.6
558.0	202.3
559.0	205.7
560.0	195.8
561.0	184.8
562.0	175.1
563.0	188.5
564.0	166.9
565.0	172.1
566.0	168.5
567.0	183.2
568.0	165.3
569.0	160.6
570.0	166.0
571.0	156.1
572.0	151.1
573.0	152.4
574.0	145.5
575.0	142.4
576.0	138.9
577.0	135.8
578.0	129.3
579.0	138.4
580.0	135.3
581.0	125.7
582.0	128.6
583.0	119.4
584.0	103.3
585.0	100.3
586.0	104.5
587.0	97.36
588.0	104.9
589.0	103.1
590.0	106.8
591.0	92.29
592.0	94.68
593.0	86.30
594.0	90.75
595.0	95.14
596.0	88.24
597.0	87.35
598.0	90.29
599.0	72.56
600.0	76.87
601.0	81.93
602.0	68.46
603.0	72.49
604.0	69.61
605.0	66.10
606.0	73.55
607.0	67.35
608.0	56.51
609.0	66.31
610.0	63.41
611.0	71.50
612.0	57.49
613.0	58.47
614.0	56.44
615.0	52.77
616.0	52.01
617.0	52.81
618.0	51.39
619.0	52.33
620.0	47.09
621.0	53.79
622.0	44.48
623.0	47.55
624.0	49.20
625.0	43.43
626.0	39.92
627.0	40.25
628.0	36.01
629.0	38.87
630.0	36.55
631.0	29.96
632.0	37.53
633.0	29.06
634.0	34.61
635.0	27.39
636.0	29.99
637.0	29.39
638.0	34.91
639.0	25.31
640.0	23.94
641.0	29.05
642.0	23.78
643.0	20.81
644.0	20.81
645.0	20.84
646.0	22.39
647.0	24.55
648.0	25.28
649.0	17.28
650.0	26.42
651.0	18.63
652.0	19.87
653.0	22.03
654.0	17.99
