Sample:	'wa-1(EM)
File name:	40.FDS
Run Date:	'15:50:31, 07/11/2024
Operator:	WXH
Comment:	'

Instrument
Model:	F-4600 FL Spectrophotometer
Serial Number:	3080-002
ROM Version:	5J24000 02

Instrument Parameters
Measurement type:	Wavelength scan
Scan mode:	Emission
Data mode:	Fluorescence
EX WL:	460.0 nm
EM  Start WL:	480.0 nm
EM  End WL:	780.0 nm
Scan speed:	1200 nm/min
Delay:	0.0 s
EX Slit:	2.5 nm
EM Slit:	2.5 nm
PMT Voltage:	600 V
Response:	Auto 
Corrected spectra:	Off
Shutter control:	On

Peak integration
Integration method:	Rectangular
Sensitivity:	1
Threshold:	1.000

Peaks
No.	Valley(nm)	Valley(Data)
1	485.0	68.80
2	488.6	86.65
3	492.6	111.7
4	512.8	346.6
5	516.8	375.0
6	519.4	360.0
7	523.2	364.3
8	529.2	342.8
9	533.0	324.9
10	536.2	314.8
11	538.4	316.8
12	540.4	298.7
13	541.6	304.0
14	544.0	305.0
15	549.2	279.1
16	550.8	281.8
17	552.8	267.6
18	554.8	280.6
19	558.8	249.7
20	564.6	222.2
21	569.2	209.3
22	574.8	183.9
23	580.6	149.3
24	582.8	145.8
25	586.4	132.9
26	589.6	122.4
27	592.4	114.5
28	594.2	108.4
29	598.4	105.3
30	604.0	86.66
31	610.6	73.12
32	612.6	75.37
33	618.6	58.34
34	622.6	50.43
35	627.6	42.99
36	630.8	36.58
37	636.2	29.41
38	641.0	29.01
39	642.8	26.31
40	647.0	23.18
41	649.8	21.74
42	652.8	17.89
43	657.8	17.31
44	663.6	13.74
45	666.4	10.41
46	672.6	9.372
47	676.8	9.063
48	678.8	11.45
49	684.6	5.840
50	688.6	6.874
51	693.4	5.819
52	697.0	4.694
53	699.4	4.881
54	703.2	5.288
55	706.0	2.524
56	709.0	3.311
57	713.4	3.838
58	717.6	1.822
59	722.2	3.701
60	724.4	3.700
61	727.2	1.944
62	734.0	2.597
63	735.4	1.660
64	740.0	1.267
65	743.4	3.568
66	748.6	1.327
67	753.6	1.250
68	756.4	1.803
69	759.0	1.729
70	763.4	1.443
71	765.2	2.057
72	766.8	1.391
73	768.6	1.096
74	772.8	1.000
75	776.4	1.243
76	780.0	2.937

Data Points
nm	Data
480.0	88.76
481.0	75.15
482.0	71.50
483.0	70.59
484.0	75.55
485.0	68.80
486.0	80.23
487.0	94.23
488.0	99.80
489.0	89.08
490.0	101.0
491.0	114.1
492.0	118.9
493.0	123.2
494.0	127.8
495.0	145.5
496.0	150.9
497.0	155.3
498.0	184.4
499.0	202.4
500.0	205.6
501.0	222.3
502.0	228.5
503.0	254.7
504.0	274.0
505.0	286.0
506.0	307.2
507.0	325.1
508.0	331.9
509.0	331.1
510.0	335.7
511.0	355.8
512.0	373.7
513.0	364.4
514.0	382.4
515.0	366.9
516.0	383.4
517.0	375.7
518.0	403.3
519.0	390.2
520.0	391.2
521.0	376.4
522.0	379.7
523.0	378.8
524.0	372.0
525.0	385.5
526.0	368.7
527.0	382.4
528.0	359.1
529.0	348.3
530.0	345.0
531.0	348.3
532.0	355.0
533.0	324.9
534.0	342.4
535.0	348.1
536.0	318.2
537.0	336.3
538.0	325.9
539.0	331.3
540.0	305.6
541.0	333.0
542.0	314.1
543.0	315.7
544.0	305.0
545.0	309.4
546.0	314.9
547.0	299.5
548.0	314.2
549.0	279.3
550.0	309.0
551.0	287.3
552.0	291.9
553.0	275.1
554.0	294.7
555.0	288.4
556.0	288.0
557.0	275.6
558.0	255.6
559.0	260.1
560.0	260.7
561.0	241.5
562.0	237.0
563.0	234.5
564.0	231.6
565.0	228.1
566.0	236.9
567.0	236.2
568.0	237.6
569.0	212.9
570.0	217.2
571.0	210.2
572.0	204.4
573.0	201.9
574.0	193.0
575.0	184.4
576.0	200.2
577.0	186.5
578.0	187.0
579.0	175.5
580.0	156.8
581.0	161.6
582.0	159.6
583.0	149.2
584.0	149.2
585.0	141.7
586.0	145.2
587.0	135.9
588.0	144.6
589.0	132.3
590.0	131.0
591.0	122.5
592.0	121.1
593.0	130.3
594.0	109.2
595.0	114.3
596.0	117.0
597.0	110.2
598.0	111.8
599.0	108.5
600.0	107.0
601.0	98.66
602.0	97.14
603.0	90.03
604.0	86.66
605.0	95.83
606.0	95.32
607.0	88.92
608.0	84.90
609.0	82.01
610.0	81.65
611.0	80.82
612.0	80.32
613.0	78.59
614.0	79.34
615.0	77.21
616.0	73.99
617.0	68.23
618.0	69.77
619.0	64.70
620.0	70.68
621.0	52.34
622.0	53.18
623.0	51.39
624.0	53.13
625.0	59.65
626.0	53.12
627.0	47.93
628.0	47.56
629.0	50.72
630.0	45.71
631.0	37.08
632.0	44.95
633.0	46.63
634.0	35.41
635.0	30.25
636.0	32.53
637.0	34.51
638.0	31.66
639.0	33.28
640.0	36.25
641.0	29.01
642.0	33.28
643.0	28.62
644.0	32.76
645.0	26.09
646.0	26.35
647.0	23.18
648.0	25.95
649.0	29.24
650.0	25.38
651.0	25.70
652.0	20.00
653.0	18.34
654.0	19.63
655.0	20.86
656.0	27.02
657.0	20.11
658.0	18.98
659.0	23.81
660.0	18.27
661.0	21.10
662.0	18.93
663.0	16.06
664.0	15.34
665.0	17.23
666.0	12.25
667.0	12.45
668.0	18.13
669.0	14.37
670.0	14.77
671.0	12.30
672.0	14.55
673.0	12.55
674.0	12.61
675.0	11.93
676.0	14.53
677.0	9.837
678.0	14.27
679.0	13.32
680.0	14.36
681.0	14.73
682.0	8.858
683.0	6.550
684.0	6.615
685.0	8.238
686.0	9.695
687.0	12.55
688.0	7.872
689.0	8.802
690.0	10.30
691.0	11.69
692.0	11.02
693.0	6.700
694.0	8.544
695.0	7.829
696.0	10.39
697.0	4.694
698.0	7.045
699.0	5.136
700.0	6.776
701.0	7.901
702.0	5.020
703.0	6.127
704.0	8.355
705.0	5.962
706.0	2.524
707.0	9.348
708.0	5.730
709.0	3.311
710.0	7.712
711.0	10.43
712.0	6.610
713.0	6.410
714.0	5.042
715.0	5.491
716.0	5.339
717.0	3.917
718.0	5.406
719.0	8.315
720.0	5.808
721.0	4.839
722.0	4.494
723.0	5.896
724.0	5.845
725.0	7.850
726.0	5.086
727.0	2.879
728.0	3.649
729.0	2.687
730.0	5.579
731.0	6.456
732.0	5.547
733.0	4.590
734.0	2.597
735.0	4.081
736.0	2.326
737.0	3.704
738.0	4.825
739.0	3.543
740.0	1.267
741.0	2.092
742.0	3.974
743.0	5.141
744.0	6.830
745.0	5.107
746.0	9.042
747.0	4.537
748.0	3.793
749.0	1.602
750.0	4.074
751.0	4.288
752.0	2.975
753.0	2.575
754.0	2.908
755.0	3.680
756.0	2.990
757.0	3.278
758.0	3.585
759.0	1.729
760.0	5.257
761.0	3.932
762.0	3.431
763.0	3.243
764.0	2.300
765.0	3.050
766.0	4.999
767.0	2.531
768.0	2.206
769.0	3.568
770.0	2.447
771.0	3.693
772.0	3.774
773.0	1.905
774.0	4.940
775.0	4.455
776.0	2.045
777.0	4.410
778.0	5.009
779.0	4.513
780.0	2.937

Sample:	'wa-2(EM)
File name:	40.FDS
Run Date:	'15:51:01, 07/11/2024
Operator:	WXH
Comment:	'

Instrument
Model:	F-4600 FL Spectrophotometer
Serial Number:	3080-002
ROM Version:	5J24000 02

Instrument Parameters
Measurement type:	Wavelength scan
Scan mode:	Emission
Data mode:	Fluorescence
EX WL:	460.0 nm
EM  Start WL:	480.0 nm
EM  End WL:	780.0 nm
Scan speed:	1200 nm/min
Delay:	0.0 s
EX Slit:	2.5 nm
EM Slit:	2.5 nm
PMT Voltage:	600 V
Response:	Auto 
Corrected spectra:	Off
Shutter control:	On

Peak integration
Integration method:	Rectangular
Sensitivity:	1
Threshold:	1.000

Peaks
No.	Valley(nm)	Valley(Data)
1	481.2	65.65
2	484.6	66.57
3	503.8	248.2
4	514.0	355.1
5	516.6	365.9
6	519.2	367.5
7	523.4	361.5
8	524.4	351.5
9	530.2	355.5
10	532.8	324.9
11	535.4	319.4
12	538.0	332.6
13	539.4	310.8
14	543.0	284.3
15	548.2	285.6
16	549.6	283.6
17	552.4	272.4
18	554.0	270.2
19	556.0	259.7
20	557.8	245.4
21	564.2	235.4
22	568.4	199.8
23	572.4	186.9
24	582.6	136.4
25	592.2	112.6
26	598.0	90.46
27	602.6	95.89
28	604.2	88.40
29	610.2	73.14
30	612.8	65.47
31	619.6	52.69
32	621.6	51.61
33	627.0	41.76
34	631.6	38.30
35	634.0	40.58
36	636.6	32.95
37	640.6	30.73
38	642.2	26.32
39	645.6	22.30
40	650.6	20.68
41	653.4	18.91
42	655.4	17.75
43	660.8	15.66
44	664.8	12.39
45	667.8	12.21
46	670.0	10.40
47	673.8	9.473
48	680.0	8.907
49	682.6	8.661
50	684.2	8.871
51	686.6	7.395
52	691.2	5.219
53	694.2	3.720
54	697.4	3.967
55	703.0	4.196
56	704.4	5.236
57	706.6	5.012
58	709.6	4.202
59	712.8	3.561
60	716.4	2.342
61	720.8	2.819
62	723.6	3.109
63	726.4	3.744
64	731.2	1.929
65	733.6	1.738
66	738.8	1.426
67	743.2	1.329
68	744.6	2.821
69	748.2	2.490
70	750.2	2.395
71	755.0	1.275
72	757.2	1.195
73	760.4	1.800
74	764.6	2.287
75	767.6	2.123
76	770.2	2.033
77	773.4	1.731
78	774.8	1.203
79	780.0	2.537

Data Points
nm	Data
480.0	69.59
481.0	68.31
482.0	69.99
483.0	78.33
484.0	70.71
485.0	69.87
486.0	74.28
487.0	72.97
488.0	90.74
489.0	88.83
490.0	94.10
491.0	112.4
492.0	108.9
493.0	123.8
494.0	123.6
495.0	138.5
496.0	164.0
497.0	161.0
498.0	177.5
499.0	178.6
500.0	207.7
501.0	227.4
502.0	239.1
503.0	254.2
504.0	252.2
505.0	281.5
506.0	307.2
507.0	291.2
508.0	312.5
509.0	320.9
510.0	338.2
511.0	348.7
512.0	347.8
513.0	378.0
514.0	355.1
515.0	377.3
516.0	390.9
517.0	376.6
518.0	377.9
519.0	381.5
520.0	391.7
521.0	388.9
522.0	377.4
523.0	371.8
524.0	383.8
525.0	361.5
526.0	373.2
527.0	359.0
528.0	366.8
529.0	356.1
530.0	365.0
531.0	365.3
532.0	354.8
533.0	333.8
534.0	339.5
535.0	337.2
536.0	328.6
537.0	334.9
538.0	332.6
539.0	317.4
540.0	327.6
541.0	334.5
542.0	306.3
543.0	284.3
544.0	310.9
545.0	305.2
546.0	309.5
547.0	299.4
548.0	289.0
549.0	302.3
550.0	297.9
551.0	293.6
552.0	285.9
553.0	304.3
554.0	270.2
555.0	283.7
556.0	259.7
557.0	292.9
558.0	260.5
559.0	262.2
560.0	264.0
561.0	257.6
562.0	233.6
563.0	251.5
564.0	240.9
565.0	250.3
566.0	247.9
567.0	214.3
568.0	213.6
569.0	222.5
570.0	223.1
571.0	218.5
572.0	195.5
573.0	192.9
574.0	199.8
575.0	194.1
576.0	190.6
577.0	177.1
578.0	183.4
579.0	163.2
580.0	158.5
581.0	155.6
582.0	146.3
583.0	150.1
584.0	157.7
585.0	154.2
586.0	144.3
587.0	142.1
588.0	131.4
589.0	131.2
590.0	131.5
591.0	127.9
592.0	118.3
593.0	119.8
594.0	121.0
595.0	122.6
596.0	117.7
597.0	109.6
598.0	90.46
599.0	107.0
600.0	105.8
601.0	99.97
602.0	98.08
603.0	103.0
604.0	93.34
605.0	97.69
606.0	97.34
607.0	84.79
608.0	85.17
609.0	87.63
610.0	76.89
611.0	85.65
612.0	84.02
613.0	71.74
614.0	80.15
615.0	76.22
616.0	73.15
617.0	71.61
618.0	72.15
619.0	62.82
620.0	61.13
621.0	60.67
622.0	58.01
623.0	58.18
624.0	55.28
625.0	52.83
626.0	47.46
627.0	41.76
628.0	48.72
629.0	46.18
630.0	50.85
631.0	41.62
632.0	46.72
633.0	41.11
634.0	40.58
635.0	44.35
636.0	33.56
637.0	35.33
638.0	42.67
639.0	37.28
640.0	32.19
641.0	32.29
642.0	28.77
643.0	30.25
644.0	35.33
645.0	27.18
646.0	24.20
647.0	29.14
648.0	23.11
649.0	24.24
650.0	24.87
651.0	25.65
652.0	23.60
653.0	19.83
654.0	18.92
655.0	23.30
656.0	20.27
657.0	24.05
658.0	21.46
659.0	19.63
660.0	18.68
661.0	17.11
662.0	16.86
663.0	19.78
664.0	15.86
665.0	15.74
666.0	20.61
667.0	14.05
668.0	13.24
669.0	10.83
670.0	10.40
671.0	11.79
672.0	19.33
673.0	10.69
674.0	11.65
675.0	10.77
676.0	12.91
677.0	11.84
678.0	11.85
679.0	11.60
680.0	8.907
681.0	14.57
682.0	11.18
683.0	10.99
684.0	9.771
685.0	10.34
686.0	8.647
687.0	10.48
688.0	9.320
689.0	10.06
690.0	8.907
691.0	6.126
692.0	9.222
693.0	9.397
694.0	5.470
695.0	10.11
696.0	8.562
697.0	4.924
698.0	6.935
699.0	6.724
700.0	10.27
701.0	9.061
702.0	8.695
703.0	4.196
704.0	8.902
705.0	6.721
706.0	7.792
707.0	7.571
708.0	9.139
709.0	5.279
710.0	5.933
711.0	6.994
712.0	5.332
713.0	4.234
714.0	7.869
715.0	8.288
716.0	5.036
717.0	3.909
718.0	6.683
719.0	6.152
720.0	6.977
721.0	2.822
722.0	5.581
723.0	3.698
724.0	4.747
725.0	5.537
726.0	5.548
727.0	7.941
728.0	6.666
729.0	5.323
730.0	3.230
731.0	2.309
732.0	7.013
733.0	4.775
734.0	2.830
735.0	2.472
736.0	3.697
737.0	4.724
738.0	4.475
739.0	2.041
740.0	4.828
741.0	6.753
742.0	5.086
743.0	2.164
744.0	5.433
745.0	3.157
746.0	4.768
747.0	4.556
748.0	3.451
749.0	6.248
750.0	3.222
751.0	3.703
752.0	2.586
753.0	3.424
754.0	2.468
755.0	1.275
756.0	1.662
757.0	1.701
758.0	3.175
759.0	3.132
760.0	2.452
761.0	3.413
762.0	6.005
763.0	4.618
764.0	2.444
765.0	4.601
766.0	6.388
767.0	3.688
768.0	3.359
769.0	5.304
770.0	2.372
771.0	3.635
772.0	4.140
773.0	2.618
774.0	5.215
775.0	2.547
776.0	3.420
777.0	4.885
778.0	7.644
779.0	2.086
780.0	2.537

Sample:	'wa-3(EM)
File name:	40.FDS
Run Date:	'15:51:31, 07/11/2024
Operator:	WXH
Comment:	'

Instrument
Model:	F-4600 FL Spectrophotometer
Serial Number:	3080-002
ROM Version:	5J24000 02

Instrument Parameters
Measurement type:	Wavelength scan
Scan mode:	Emission
Data mode:	Fluorescence
EX WL:	460.0 nm
EM  Start WL:	480.0 nm
EM  End WL:	780.0 nm
Scan speed:	1200 nm/min
Delay:	0.0 s
EX Slit:	2.5 nm
EM Slit:	2.5 nm
PMT Voltage:	600 V
Response:	Auto 
Corrected spectra:	Off
Shutter control:	On

Peak integration
Integration method:	Rectangular
Sensitivity:	1
Threshold:	1.000

Peaks
No.	Valley(nm)	Valley(Data)
1	484.6	64.96
2	505.2	258.1
3	511.2	340.5
4	515.8	364.1
5	517.0	353.9
6	520.6	353.7
7	524.6	351.0
8	527.0	336.5
9	528.4	352.0
10	536.4	318.4
11	538.8	303.8
12	542.0	282.1
13	547.6	295.9
14	560.8	232.9
15	566.8	212.1
16	574.6	187.2
17	580.8	163.5
18	583.8	151.5
19	586.2	137.1
20	589.8	121.2
21	595.8	109.1
22	603.4	85.94
23	607.0	74.33
24	611.8	71.77
25	615.0	59.24
26	619.6	59.08
27	621.4	56.60
28	623.6	47.33
29	626.2	46.09
30	630.6	42.25
31	633.2	37.13
32	636.8	30.27
33	640.4	29.56
34	643.2	27.90
35	646.4	23.40
36	648.0	22.87
37	653.8	19.64
38	659.8	17.82
39	664.2	11.78
40	668.6	8.846
41	672.0	10.97
42	675.8	9.122
43	680.2	9.653
44	685.2	4.713
45	688.4	4.601
46	690.8	4.700
47	693.4	5.732
48	697.4	5.791
49	701.4	5.810
50	704.6	4.424
51	707.0	5.381
52	711.6	3.047
53	715.2	2.935
54	718.4	2.463
55	722.8	1.710
56	724.6	3.435
57	728.8	3.440
58	731.4	3.745
59	737.2	3.238
60	741.4	1.499
61	747.4	2.384
62	750.6	3.066
63	753.6	2.935
64	757.2	2.081
65	763.8	1.296
66	766.8	3.502
67	770.2	1.777
68	771.8	1.600
69	773.2	2.128
70	777.0	2.635
71	779.0	2.183

Data Points
nm	Data
480.0	92.44
481.0	70.34
482.0	70.90
483.0	79.33
484.0	69.95
485.0	70.66
486.0	83.48
487.0	73.93
488.0	87.65
489.0	87.91
490.0	94.06
491.0	98.58
492.0	117.2
493.0	120.5
494.0	122.8
495.0	133.9
496.0	149.8
497.0	156.3
498.0	169.6
499.0	194.0
500.0	213.0
501.0	222.7
502.0	224.9
503.0	238.8
504.0	269.2
505.0	266.9
506.0	287.9
507.0	310.4
508.0	299.7
509.0	315.9
510.0	343.6
511.0	371.0
512.0	352.8
513.0	351.6
514.0	371.0
515.0	370.9
516.0	380.9
517.0	353.9
518.0	385.3
519.0	388.4
520.0	378.1
521.0	370.0
522.0	382.3
523.0	387.6
524.0	375.4
525.0	368.3
526.0	373.1
527.0	336.5
528.0	362.1
529.0	357.4
530.0	357.7
531.0	352.0
532.0	354.5
533.0	320.6
534.0	345.3
535.0	332.7
536.0	321.4
537.0	325.5
538.0	341.7
539.0	311.3
540.0	322.5
541.0	299.4
542.0	282.1
543.0	289.3
544.0	314.8
545.0	305.2
546.0	305.6
547.0	303.5
548.0	314.4
549.0	286.6
550.0	299.5
551.0	296.1
552.0	292.4
553.0	286.5
554.0	288.3
555.0	282.4
556.0	276.8
557.0	264.7
558.0	265.7
559.0	266.5
560.0	254.6
561.0	249.9
562.0	253.7
563.0	245.5
564.0	229.3
565.0	223.7
566.0	221.9
567.0	222.1
568.0	229.5
569.0	212.9
570.0	221.0
571.0	211.5
572.0	205.6
573.0	202.0
574.0	192.2
575.0	194.6
576.0	198.6
577.0	180.1
578.0	174.5
579.0	175.3
580.0	167.2
581.0	176.8
582.0	167.4
583.0	165.2
584.0	154.0
585.0	158.3
586.0	137.7
587.0	148.9
588.0	124.3
589.0	124.1
590.0	129.3
591.0	130.8
592.0	127.6
593.0	118.5
594.0	111.7
595.0	109.7
596.0	111.8
597.0	105.6
598.0	108.4
599.0	103.6
600.0	93.53
601.0	94.27
602.0	98.68
603.0	88.56
604.0	95.13
605.0	97.11
606.0	83.71
607.0	74.33
608.0	86.94
609.0	95.07
610.0	81.32
611.0	74.77
612.0	72.08
613.0	80.07
614.0	74.64
615.0	59.24
616.0	65.07
617.0	75.85
618.0	71.69
619.0	60.29
620.0	62.81
621.0	58.90
622.0	69.45
623.0	57.08
624.0	49.00
625.0	55.72
626.0	48.19
627.0	52.77
628.0	50.67
629.0	48.24
630.0	45.26
631.0	46.37
632.0	42.52
633.0	39.15
634.0	38.32
635.0	36.25
636.0	34.21
637.0	30.43
638.0	38.71
639.0	31.26
640.0	31.20
641.0	30.68
642.0	31.75
643.0	30.69
644.0	36.39
645.0	35.26
646.0	25.22
647.0	28.58
648.0	22.87
649.0	27.42
650.0	26.52
651.0	28.12
652.0	25.03
653.0	22.64
654.0	23.91
655.0	22.87
656.0	24.45
657.0	21.96
658.0	18.25
659.0	19.35
660.0	21.51
661.0	18.17
662.0	15.59
663.0	15.93
664.0	12.59
665.0	16.09
666.0	19.44
667.0	18.29
668.0	12.96
669.0	10.87
670.0	15.72
671.0	10.92
672.0	10.97
673.0	12.33
674.0	13.01
675.0	15.63
676.0	10.84
677.0	12.29
678.0	11.55
679.0	14.16
680.0	11.21
681.0	10.85
682.0	12.42
683.0	9.701
684.0	7.602
685.0	5.669
686.0	5.708
687.0	5.994
688.0	7.190
689.0	6.104
690.0	9.788
691.0	8.538
692.0	7.121
693.0	5.871
694.0	8.271
695.0	6.998
696.0	9.372
697.0	6.079
698.0	7.315
699.0	9.647
700.0	7.917
701.0	10.64
702.0	7.727
703.0	7.301
704.0	7.092
705.0	4.579
706.0	5.836
707.0	5.381
708.0	6.382
709.0	8.244
710.0	5.665
711.0	4.951
712.0	3.695
713.0	6.900
714.0	5.200
715.0	3.826
716.0	5.754
717.0	6.065
718.0	3.226
719.0	4.585
720.0	4.469
721.0	4.955
722.0	5.201
723.0	2.968
724.0	5.203
725.0	5.341
726.0	9.470
727.0	4.814
728.0	4.366
729.0	4.396
730.0	6.920
731.0	4.210
732.0	4.673
733.0	5.379
734.0	7.280
735.0	9.915
736.0	2.274
737.0	3.644
738.0	6.865
739.0	5.452
740.0	4.241
741.0	3.143
742.0	3.353
743.0	2.838
744.0	5.448
745.0	5.047
746.0	4.340
747.0	3.194
748.0	7.582
749.0	5.417
750.0	3.818
751.0	3.784
752.0	4.056
753.0	5.532
754.0	3.952
755.0	4.468
756.0	3.280
757.0	2.419
758.0	4.972
759.0	4.082
760.0	4.010
761.0	3.354
762.0	1.263
763.0	2.167
764.0	2.664
765.0	3.503
766.0	5.096
767.0	4.108
768.0	4.937
769.0	4.191
770.0	2.629
771.0	3.778
772.0	1.768
773.0	2.639
774.0	3.610
775.0	4.596
776.0	6.496
777.0	2.635
778.0	4.032
779.0	2.183
780.0	3.863

Sample:	'wa-4(EM)
File name:	40.FDS
Run Date:	'15:52:02, 07/11/2024
Operator:	WXH
Comment:	'

Instrument
Model:	F-4600 FL Spectrophotometer
Serial Number:	3080-002
ROM Version:	5J24000 02

Instrument Parameters
Measurement type:	Wavelength scan
Scan mode:	Emission
Data mode:	Fluorescence
EX WL:	460.0 nm
EM  Start WL:	480.0 nm
EM  End WL:	780.0 nm
Scan speed:	1200 nm/min
Delay:	0.0 s
EX Slit:	2.5 nm
EM Slit:	2.5 nm
PMT Voltage:	600 V
Response:	Auto 
Corrected spectra:	Off
Shutter control:	On

Peak integration
Integration method:	Rectangular
Sensitivity:	1
Threshold:	1.000

Peaks
No.	Valley(nm)	Valley(Data)
1	482.8	59.47
2	493.0	109.9
3	511.6	333.3
4	514.4	366.6
5	516.8	356.4
6	519.4	360.0
7	521.4	368.8
8	523.6	367.6
9	525.6	364.0
10	531.0	338.1
11	532.4	337.7
12	536.0	321.7
13	539.6	307.9
14	544.6	286.2
15	547.0	287.8
16	549.2	274.3
17	552.2	286.3
18	555.0	261.3
19	558.2	253.4
20	563.4	222.9
21	570.0	209.1
22	577.2	164.1
23	585.2	133.1
24	590.6	119.7
25	603.0	89.92
26	604.8	83.05
27	610.2	66.21
28	612.4	69.17
29	616.6	62.04
30	619.6	53.96
31	622.0	57.62
32	623.4	49.93
33	629.0	38.99
34	631.2	36.01
35	633.8	30.82
36	639.4	23.51
37	643.0	24.84
38	645.2	24.65
39	648.0	24.45
40	649.8	22.32
41	654.0	19.69
42	658.6	13.39
43	664.4	14.82
44	666.6	11.31
45	669.2	11.04
46	671.2	12.64
47	674.0	9.696
48	676.2	10.97
49	678.8	8.360
50	682.2	8.719
51	685.6	6.035
52	689.6	5.447
53	691.6	7.184
54	696.4	6.545
55	701.0	5.201
56	704.8	5.802
57	707.2	4.555
58	710.4	2.934
59	715.4	4.009
60	717.4	3.885
61	721.6	2.842
62	725.8	4.146
63	731.2	2.433
64	732.6	2.312
65	736.6	2.788
66	739.8	2.687
67	741.6	2.158
68	745.0	3.232
69	747.0	1.462
70	751.4	1.738
71	754.2	2.702
72	756.6	1.835
73	758.6	1.913
74	762.6	1.770
75	765.4	2.144
76	769.2	1.725
77	772.2	1.335
78	774.4	2.609
79	777.2	1.811
80	780.0	2.866

Data Points
nm	Data
480.0	62.55
481.0	79.00
482.0	68.54
483.0	67.29
484.0	63.29
485.0	76.98
486.0	76.98
487.0	81.09
488.0	84.67
489.0	80.70
490.0	95.63
491.0	108.6
492.0	109.9
493.0	109.9
494.0	117.0
495.0	127.1
496.0	150.6
497.0	157.7
498.0	167.8
499.0	185.9
500.0	228.8
501.0	219.4
502.0	239.4
503.0	244.7
504.0	274.6
505.0	282.9
506.0	296.4
507.0	310.6
508.0	321.7
509.0	323.5
510.0	331.1
511.0	344.4
512.0	350.7
513.0	375.1
514.0	389.2
515.0	379.8
516.0	391.9
517.0	356.8
518.0	368.8
519.0	379.9
520.0	379.5
521.0	394.2
522.0	389.5
523.0	383.6
524.0	376.2
525.0	380.3
526.0	368.4
527.0	385.9
528.0	378.6
529.0	353.8
530.0	349.3
531.0	338.1
532.0	356.9
533.0	340.6
534.0	356.7
535.0	353.1
536.0	321.7
537.0	342.2
538.0	324.7
539.0	321.9
540.0	312.9
541.0	323.8
542.0	316.8
543.0	314.2
544.0	297.5
545.0	299.2
546.0	320.4
547.0	287.8
548.0	303.4
549.0	279.1
550.0	306.1
551.0	305.8
552.0	295.0
553.0	295.0
554.0	305.3
555.0	261.3
556.0	276.5
557.0	279.7
558.0	266.4
559.0	273.8
560.0	272.6
561.0	265.3
562.0	251.5
563.0	236.2
564.0	240.0
565.0	235.6
566.0	238.0
567.0	225.9
568.0	224.3
569.0	221.4
570.0	209.1
571.0	228.4
572.0	234.9
573.0	198.7
574.0	176.4
575.0	182.0
576.0	183.2
577.0	180.5
578.0	185.5
579.0	187.8
580.0	177.2
581.0	168.6
582.0	157.2
583.0	150.2
584.0	138.4
585.0	140.6
586.0	147.1
587.0	141.0
588.0	136.0
589.0	135.5
590.0	136.1
591.0	121.1
592.0	136.6
593.0	130.9
594.0	118.1
595.0	119.2
596.0	120.7
597.0	108.7
598.0	109.4
599.0	108.3
600.0	103.5
601.0	94.16
602.0	102.4
603.0	89.92
604.0	102.2
605.0	84.88
606.0	94.17
607.0	89.41
608.0	80.84
609.0	77.18
610.0	69.57
611.0	78.11
612.0	72.17
613.0	85.92
614.0	75.13
615.0	65.01
616.0	65.83
617.0	64.42
618.0	65.44
619.0	64.41
620.0	59.90
621.0	58.34
622.0	57.62
623.0	51.64
624.0	54.76
625.0	53.82
626.0	53.99
627.0	46.32
628.0	42.77
629.0	38.99
630.0	42.84
631.0	38.81
632.0	44.93
633.0	38.17
634.0	34.19
635.0	33.67
636.0	39.48
637.0	35.07
638.0	35.97
639.0	28.24
640.0	33.05
641.0	27.88
642.0	31.99
643.0	24.84
644.0	31.00
645.0	26.57
646.0	26.51
647.0	29.77
648.0	24.45
649.0	26.84
650.0	23.43
651.0	26.85
