Sample:	'wa-1(EM)
File name:	50.FDS
Run Date:	'15:32:50, 07/11/2024
Operator:	WXH
Comment:	'

Instrument
Model:	F-4600 FL Spectrophotometer
Serial Number:	3080-002
ROM Version:	5J24000 02

Instrument Parameters
Measurement type:	Wavelength scan
Scan mode:	Emission
Data mode:	Fluorescence
EX WL:	460.0 nm
EM  Start WL:	480.0 nm
EM  End WL:	780.0 nm
Scan speed:	1200 nm/min
Delay:	0.0 s
EX Slit:	2.5 nm
EM Slit:	2.5 nm
PMT Voltage:	600 V
Response:	Auto 
Corrected spectra:	Off
Shutter control:	On

Peak integration
Integration method:	Rectangular
Sensitivity:	1
Threshold:	1.000

Peaks
No.	Valley(nm)	Valley(Data)
1	482.8	95.29
2	485.2	108.6
3	488.8	105.3
4	497.2	180.1
5	510.6	378.7
6	513.8	408.4
7	517.2	436.1
8	519.6	426.3
9	522.2	424.2
10	526.0	398.9
11	527.6	397.3
12	533.4	364.3
13	538.6	348.8
14	542.0	354.1
15	545.4	322.4
16	547.2	336.0
17	549.8	329.1
18	554.2	303.4
19	556.4	299.2
20	558.0	299.2
21	561.4	277.7
22	567.6	244.6
23	571.0	215.6
24	573.4	215.3
25	580.2	170.6
26	583.4	158.3
27	587.4	144.4
28	590.6	137.2
29	594.2	130.2
30	599.2	104.3
31	601.8	100.9
32	607.0	90.22
33	610.4	81.52
34	614.6	75.07
35	618.0	63.90
36	621.6	54.62
37	629.8	46.07
38	633.0	43.62
39	635.6	34.40
40	638.6	33.56
41	641.2	30.38
42	644.0	27.49
43	645.8	22.62
44	648.6	22.93
45	650.4	24.06
46	655.0	18.25
47	658.6	16.07
48	660.2	15.93
49	662.8	14.97
50	667.0	13.68
51	671.6	10.24
52	676.0	10.00
53	680.6	8.004
54	682.2	5.842
55	687.0	4.810
56	690.6	5.990
57	694.4	3.039
58	696.6	4.355
59	698.4	5.239
60	700.2	4.503
61	702.4	3.506
62	706.4	3.484
63	708.2	3.468
64	710.0	3.793
65	712.6	2.870
66	714.8	1.100
67	717.6	1.776
68	720.0	1.994
69	726.4	1.964
70	731.0	0.391
71	734.0	1.391
72	741.4	1.802
73	744.2	1.419
74	750.0	0.411
75	751.4	0.511
76	756.6	0.837
77	760.4	0.228
78	763.0	1.920
79	769.6	-0.396
80	772.0	-0.178
81	775.4	0.775
82	777.4	0.660
83	780.0	2.294

Data Points
nm	Data
480.0	107.1
481.0	103.8
482.0	103.4
483.0	98.96
484.0	105.8
485.0	113.4
486.0	114.7
487.0	116.2
488.0	113.6
489.0	112.4
490.0	123.6
491.0	125.6
492.0	140.9
493.0	154.7
494.0	171.5
495.0	170.5
496.0	187.0
497.0	182.0
498.0	196.9
499.0	214.5
500.0	232.7
501.0	262.2
502.0	291.4
503.0	282.0
504.0	307.8
505.0	319.2
506.0	335.0
507.0	354.0
508.0	369.8
509.0	377.0
510.0	404.5
511.0	393.9
512.0	411.7
513.0	420.5
514.0	409.8
515.0	440.4
516.0	458.1
517.0	441.5
518.0	474.8
519.0	434.9
520.0	433.9
521.0	448.7
522.0	444.3
523.0	435.1
524.0	428.6
525.0	425.6
526.0	398.9
527.0	415.4
528.0	408.7
529.0	408.1
530.0	413.3
531.0	416.0
532.0	385.0
533.0	367.3
534.0	370.6
535.0	389.0
536.0	395.7
537.0	387.1
538.0	366.4
539.0	356.9
540.0	381.5
541.0	367.1
542.0	354.1
543.0	359.7
544.0	369.4
545.0	333.1
546.0	349.5
547.0	357.8
548.0	357.6
549.0	355.5
550.0	334.1
551.0	336.8
552.0	344.9
553.0	318.6
554.0	311.1
555.0	319.8
556.0	305.8
557.0	308.5
558.0	299.2
559.0	301.1
560.0	291.7
561.0	279.9
562.0	290.0
563.0	283.7
564.0	269.1
565.0	268.3
566.0	262.2
567.0	256.2
568.0	248.2
569.0	248.1
570.0	232.2
571.0	215.6
572.0	234.8
573.0	221.5
574.0	224.7
575.0	214.5
576.0	219.5
577.0	205.4
578.0	204.4
579.0	183.0
580.0	178.1
581.0	181.9
582.0	174.3
583.0	165.0
584.0	172.6
585.0	163.0
586.0	160.0
587.0	156.7
588.0	148.5
589.0	140.1
590.0	147.8
591.0	139.7
592.0	131.8
593.0	146.0
594.0	130.3
595.0	135.2
596.0	140.1
597.0	119.7
598.0	119.6
599.0	105.4
600.0	118.7
601.0	124.0
602.0	101.9
603.0	107.7
604.0	105.3
605.0	103.0
606.0	90.33
607.0	90.22
608.0	99.78
609.0	93.47
610.0	87.29
611.0	93.77
612.0	89.18
613.0	83.53
614.0	77.70
615.0	83.37
616.0	82.73
617.0	74.93
618.0	63.90
619.0	75.49
620.0	67.58
621.0	62.70
622.0	57.04
623.0	70.57
624.0	72.84
625.0	60.34
626.0	58.10
627.0	56.97
628.0	53.02
629.0	48.09
630.0	52.49
631.0	51.71
632.0	55.10
633.0	43.62
634.0	42.08
635.0	40.18
636.0	43.50
637.0	37.10
638.0	38.26
639.0	42.51
640.0	35.79
641.0	33.28
642.0	36.79
643.0	37.50
644.0	27.49
645.0	30.26
646.0	23.06
647.0	29.10
648.0	29.54
649.0	28.40
650.0	28.62
651.0	31.81
652.0	25.08
653.0	22.63
654.0	21.82
655.0	18.25
656.0	16.62
657.0	22.75
658.0	18.91
659.0	20.36
660.0	19.33
661.0	17.56
662.0	19.41
663.0	16.95
664.0	20.45
665.0	16.91
666.0	15.73
667.0	13.68
668.0	16.81
669.0	16.38
670.0	14.64
671.0	10.19
672.0	10.74
673.0	13.66
674.0	14.46
675.0	10.67
676.0	10.00
677.0	10.53
678.0	12.47
679.0	15.55
680.0	9.332
681.0	10.30
682.0	7.451
683.0	9.264
684.0	9.315
685.0	11.01
686.0	6.667
687.0	4.810
688.0	11.60
689.0	9.600
690.0	8.124
691.0	7.518
692.0	10.53
693.0	5.541
694.0	3.997
695.0	5.351
696.0	5.656
697.0	8.485
698.0	6.469
699.0	6.146
700.0	6.189
701.0	5.812
702.0	5.668
703.0	5.514
704.0	5.399
705.0	6.273
706.0	5.432
707.0	4.369
708.0	4.005
709.0	6.850
710.0	3.793
711.0	6.034
712.0	4.429
713.0	5.383
714.0	4.811
715.0	2.095
716.0	3.356
717.0	2.236
718.0	2.145
719.0	5.183
720.0	1.994
721.0	11.18
722.0	9.351
723.0	4.384
724.0	3.607
725.0	2.822
726.0	3.106
727.0	4.256
728.0	5.321
729.0	3.587
730.0	1.749
731.0	0.391
732.0	3.755
733.0	2.903
734.0	1.391
735.0	5.525
736.0	3.667
737.0	4.504
738.0	4.065
739.0	2.957
740.0	2.908
741.0	2.144
742.0	2.901
743.0	2.952
744.0	2.757
745.0	5.161
746.0	4.583
747.0	3.600
748.0	2.767
749.0	2.179
750.0	0.411
751.0	0.664
752.0	1.222
753.0	2.277
754.0	4.142
755.0	2.101
756.0	3.269
757.0	1.972
758.0	2.863
759.0	3.143
760.0	0.373
761.0	1.719
762.0	5.055
763.0	1.920
764.0	2.286
765.0	4.589
766.0	2.832
767.0	0.597
768.0	0.565
769.0	0.614
770.0	0.261
771.0	1.683
772.0	-0.178
773.0	0.424
774.0	2.095
775.0	1.456
776.0	2.947
777.0	1.747
778.0	3.077
779.0	2.048
780.0	2.294

Sample:	'wa-2(EM)
File name:	50.FDS
Run Date:	'15:33:20, 07/11/2024
Operator:	WXH
Comment:	'

Instrument
Model:	F-4600 FL Spectrophotometer
Serial Number:	3080-002
ROM Version:	5J24000 02

Instrument Parameters
Measurement type:	Wavelength scan
Scan mode:	Emission
Data mode:	Fluorescence
EX WL:	460.0 nm
EM  Start WL:	480.0 nm
EM  End WL:	780.0 nm
Scan speed:	1200 nm/min
Delay:	0.0 s
EX Slit:	2.5 nm
EM Slit:	2.5 nm
PMT Voltage:	600 V
Response:	Auto 
Corrected spectra:	Off
Shutter control:	On

Peak integration
Integration method:	Rectangular
Sensitivity:	1
Threshold:	1.000

Peaks
No.	Valley(nm)	Valley(Data)
1	488.0	106.5
2	491.4	118.9
3	509.8	358.1
4	516.0	410.1
5	519.0	431.1
6	522.2	409.0
7	524.8	416.8
8	530.4	388.0
9	534.8	361.3
10	539.2	345.1
11	545.0	323.1
12	552.4	303.3
13	556.2	299.8
14	559.0	286.6
15	565.2	254.6
16	569.6	237.5
17	579.0	181.7
18	588.0	152.2
19	590.2	140.7
20	595.4	116.0
21	597.8	121.4
22	604.2	96.52
23	606.6	98.25
24	609.8	83.96
25	615.2	71.66
26	620.4	63.18
27	625.4	49.19
28	629.6	50.29
29	634.2	42.31
30	638.0	32.76
31	643.4	26.18
32	650.4	22.47
33	652.0	19.34
34	655.8	16.91
35	660.0	17.66
36	665.4	13.12
37	668.0	9.165
38	672.0	10.95
39	675.0	8.894
40	677.0	10.10
41	679.6	7.900
42	682.0	8.547
43	686.2	6.202
44	691.6	6.317
45	695.0	4.755
46	698.4	4.412
47	702.8	0.774
48	705.8	3.148
49	709.2	1.994
50	714.2	1.726
51	719.0	3.790
52	722.0	0.802
53	724.0	3.012
54	726.2	3.167
55	729.0	1.335
56	731.8	1.470
57	736.6	1.347
58	738.6	1.056
59	740.2	0.735
60	742.6	-0.346
61	745.4	0.938
62	747.8	1.835
63	750.8	0.978
64	758.2	0.467
65	760.4	0.936
66	763.0	0.291
67	766.4	1.096
68	771.4	-0.976
69	778.2	1.192

Data Points
nm	Data
480.0	117.0
481.0	105.1
482.0	104.1
483.0	93.87
484.0	101.8
485.0	115.4
486.0	111.3
487.0	110.7
488.0	106.5
489.0	124.3
490.0	122.9
491.0	127.2
492.0	133.0
493.0	153.9
494.0	160.4
495.0	175.1
496.0	175.8
497.0	202.7
498.0	223.3
499.0	227.6
500.0	228.8
501.0	272.9
502.0	273.8
503.0	281.2
504.0	292.6
505.0	331.0
506.0	355.1
507.0	369.2
508.0	375.4
509.0	374.6
510.0	373.6
511.0	401.0
512.0	411.5
513.0	414.4
514.0	441.6
515.0	438.0
516.0	410.1
517.0	456.4
518.0	444.3
519.0	431.1
520.0	430.4
521.0	425.1
522.0	419.6
523.0	443.9
524.0	417.5
525.0	439.0
526.0	438.2
527.0	422.1
528.0	399.9
529.0	398.4
530.0	389.2
531.0	395.4
532.0	403.0
533.0	412.0
534.0	397.4
535.0	374.5
536.0	374.1
537.0	380.5
538.0	378.7
539.0	362.0
540.0	363.5
541.0	357.0
542.0	358.1
543.0	363.8
544.0	352.2
545.0	323.1
546.0	330.7
547.0	349.2
548.0	352.3
549.0	336.4
550.0	337.9
551.0	331.6
552.0	320.9
553.0	316.6
554.0	317.6
555.0	329.6
556.0	309.6
557.0	312.4
558.0	325.5
559.0	286.6
560.0	305.8
561.0	307.0
562.0	291.6
563.0	292.3
564.0	277.5
565.0	267.8
566.0	263.6
567.0	263.2
568.0	258.8
569.0	251.3
570.0	249.7
571.0	252.0
572.0	227.1
573.0	240.1
574.0	212.5
575.0	216.4
576.0	213.4
577.0	210.6
578.0	204.2
579.0	181.7
580.0	204.1
581.0	190.1
582.0	174.5
583.0	181.9
584.0	170.1
585.0	179.6
586.0	165.3
587.0	166.7
588.0	152.2
589.0	157.6
590.0	141.2
591.0	150.3
592.0	150.2
593.0	133.0
594.0	131.1
595.0	130.6
596.0	123.8
597.0	126.7
598.0	128.8
599.0	138.0
600.0	112.9
601.0	113.7
602.0	113.5
603.0	110.3
604.0	100.4
605.0	113.3
606.0	99.92
607.0	108.3
608.0	101.0
609.0	86.12
610.0	86.98
611.0	89.15
612.0	80.22
613.0	77.43
614.0	84.01
615.0	76.65
616.0	76.10
617.0	74.86
618.0	85.97
619.0	72.70
620.0	67.47
621.0	67.70
622.0	71.17
623.0	66.10
624.0	61.28
625.0	58.33
626.0	53.89
627.0	55.62
628.0	53.27
629.0	53.39
630.0	54.51
631.0	58.01
632.0	58.20
633.0	48.06
634.0	49.26
635.0	47.75
636.0	42.17
637.0	33.36
638.0	32.76
639.0	36.48
640.0	36.52
641.0	32.05
642.0	28.94
643.0	27.03
644.0	31.30
645.0	28.62
646.0	29.66
647.0	29.55
648.0	22.57
649.0	26.94
650.0	24.44
651.0	34.29
652.0	19.34
653.0	25.33
654.0	22.16
655.0	17.53
656.0	17.95
657.0	18.03
658.0	24.98
659.0	22.21
660.0	17.66
661.0	22.34
662.0	20.38
663.0	14.81
664.0	16.36
665.0	13.58
666.0	17.83
667.0	16.32
668.0	9.165
669.0	15.61
670.0	16.77
671.0	16.62
672.0	10.95
673.0	13.26
674.0	12.59
675.0	8.894
676.0	11.72
677.0	10.10
678.0	13.39
679.0	12.11
680.0	10.39
681.0	10.05
682.0	8.547
683.0	11.29
684.0	8.304
685.0	6.762
686.0	7.555
687.0	8.903
688.0	9.425
689.0	14.35
690.0	11.31
691.0	8.806
692.0	6.847
693.0	8.826
694.0	8.000
695.0	4.755
696.0	10.02
697.0	7.962
698.0	7.389
699.0	10.69
700.0	5.687
701.0	6.992
702.0	3.970
703.0	3.299
704.0	5.967
705.0	6.152
706.0	5.085
707.0	3.953
708.0	4.196
709.0	2.429
710.0	6.997
711.0	6.101
712.0	5.183
713.0	2.730
714.0	2.323
715.0	5.663
716.0	7.926
717.0	5.490
718.0	5.053
719.0	3.790
720.0	5.559
721.0	1.969
722.0	0.802
723.0	3.951
724.0	3.012
725.0	5.520
726.0	4.525
727.0	4.595
728.0	4.922
729.0	1.335
730.0	3.368
731.0	2.760
732.0	1.519
733.0	7.438
734.0	5.246
735.0	3.643
736.0	3.502
737.0	3.066
738.0	2.710
739.0	4.287
740.0	0.983
741.0	3.339
742.0	0.255
743.0	0.694
744.0	3.605
745.0	2.381
746.0	3.735
747.0	3.105
748.0	2.400
749.0	4.471
750.0	1.770
751.0	1.330
752.0	2.932
753.0	2.796
754.0	5.201
755.0	4.658
756.0	4.004
757.0	1.653
758.0	0.626
759.0	2.972
760.0	1.741
761.0	2.294
762.0	2.944
763.0	0.291
764.0	2.791
765.0	0.677
766.0	1.330
767.0	1.382
768.0	2.193
769.0	3.487
770.0	4.476
771.0	0.269
772.0	0.744
773.0	3.761
774.0	3.785
775.0	3.165
776.0	5.360
777.0	1.468
778.0	1.856
779.0	2.342
780.0	2.528

Sample:	'wa-3(EM)
File name:	50.FDS
Run Date:	'15:33:50, 07/11/2024
Operator:	WXH
Comment:	'

Instrument
Model:	F-4600 FL Spectrophotometer
Serial Number:	3080-002
ROM Version:	5J24000 02

Instrument Parameters
Measurement type:	Wavelength scan
Scan mode:	Emission
Data mode:	Fluorescence
EX WL:	460.0 nm
EM  Start WL:	480.0 nm
EM  End WL:	780.0 nm
Scan speed:	1200 nm/min
Delay:	0.0 s
EX Slit:	2.5 nm
EM Slit:	2.5 nm
PMT Voltage:	600 V
Response:	Auto 
Corrected spectra:	Off
Shutter control:	On

Peak integration
Integration method:	Rectangular
Sensitivity:	1
Threshold:	1.000

Peaks
No.	Valley(nm)	Valley(Data)
1	481.6	91.04
2	484.2	101.7
3	489.0	109.2
4	511.4	400.6
5	514.6	401.9
6	519.8	430.9
7	522.2	428.0
8	524.0	413.7
9	529.6	404.8
10	530.8	401.3
11	533.8	383.1
12	536.8	365.8
13	540.2	334.1
14	543.0	335.0
15	546.6	344.5
16	548.8	348.8
17	552.6	301.8
18	555.2	311.4
19	559.0	277.6
20	567.8	242.4
21	577.0	201.1
22	580.6	173.8
23	586.2	156.4
24	589.8	140.5
25	595.0	123.8
26	600.0	109.5
27	605.0	101.7
28	608.8	79.26
29	612.0	78.44
30	614.2	73.06
31	617.4	68.60
32	620.8	65.86
33	625.2	53.96
34	626.6	55.90
35	630.0	44.43
36	634.4	36.41
37	637.2	36.68
38	641.4	28.28
39	645.2	24.06
40	648.6	23.46
41	653.0	18.51
42	655.8	16.97
43	659.6	19.05
44	663.4	12.50
45	666.8	13.09
46	671.0	9.779
47	677.0	10.41
48	684.2	5.860
49	688.6	5.771
50	692.4	5.029
51	696.6	4.686
52	699.6	2.954
53	704.2	2.316
54	708.4	2.554
55	716.8	1.974
56	721.4	2.673
57	724.6	2.470
58	728.0	2.487
59	730.2	3.081
60	733.4	0.847
61	736.2	0.798
62	738.8	0.945
63	741.6	1.532
64	747.2	0.726
65	749.0	0.342
66	753.2	0.957
67	759.6	0.759
68	760.8	1.232
69	766.4	0.021
70	769.4	0.437
71	771.4	0.274
72	774.6	0.852
73	777.8	0.966

Data Points
nm	Data
480.0	106.1
481.0	97.33
482.0	103.2
483.0	105.2
484.0	104.6
485.0	105.1
486.0	108.4
487.0	117.5
488.0	122.2
489.0	109.2
490.0	117.3
491.0	136.5
492.0	139.0
493.0	163.7
494.0	165.9
495.0	168.6
496.0	177.7
497.0	188.1
498.0	202.5
499.0	224.1
500.0	239.5
501.0	263.6
502.0	272.8
503.0	289.8
504.0	302.6
505.0	332.5
506.0	344.6
507.0	357.9
508.0	369.7
509.0	401.5
510.0	426.4
511.0	412.8
512.0	420.9
513.0	419.6
514.0	420.4
515.0	421.2
516.0	409.2
517.0	417.9
518.0	434.6
519.0	435.0
520.0	449.7
521.0	454.9
522.0	431.2
523.0	451.4
524.0	413.7
525.0	458.9
526.0	431.6
527.0	417.6
528.0	416.9
529.0	415.2
530.0	416.4
531.0	402.9
532.0	417.1
533.0	393.5
534.0	393.3
535.0	395.8
536.0	377.4
537.0	372.7
538.0	381.8
539.0	361.7
540.0	339.5
541.0	362.5
542.0	380.1
543.0	335.0
544.0	374.0
545.0	358.8
546.0	354.2
547.0	369.1
548.0	362.1
549.0	349.6
550.0	355.1
551.0	330.1
552.0	322.7
553.0	308.5
554.0	321.0
555.0	320.0
556.0	317.2
557.0	317.4
558.0	307.6
559.0	277.6
560.0	293.5
561.0	285.4
562.0	297.9
563.0	294.1
564.0	282.3
565.0	265.2
566.0	274.8
567.0	252.9
568.0	263.5
569.0	247.8
570.0	241.1
571.0	227.1
572.0	231.1
573.0	221.0
574.0	225.3
575.0	214.5
576.0	212.2
577.0	201.1
578.0	203.4
579.0	186.1
580.0	189.0
581.0	176.1
582.0	184.9
583.0	173.9
584.0	167.0
585.0	162.7
586.0	160.6
587.0	164.0
588.0	156.7
589.0	144.6
590.0	148.9
591.0	162.0
592.0	140.4
593.0	139.1
594.0	136.1
595.0	123.8
596.0	136.3
597.0	129.5
598.0	136.9
599.0	123.6
600.0	109.5
601.0	118.8
602.0	128.6
603.0	119.6
604.0	111.9
605.0	101.7
606.0	107.9
607.0	96.63
608.0	96.63
609.0	90.82
610.0	86.54
611.0	94.39
612.0	78.44
613.0	85.21
614.0	73.12
615.0	81.61
616.0	89.16
617.0	73.74
618.0	76.83
619.0	67.39
620.0	69.19
621.0	66.87
622.0	73.09
623.0	65.66
624.0	58.79
625.0	59.52
626.0	61.56
627.0	63.02
628.0	59.53
629.0	54.40
630.0	44.43
631.0	48.73
632.0	45.73
633.0	40.71
634.0	39.07
635.0	44.59
636.0	39.44
637.0	37.30
638.0	44.94
639.0	41.13
640.0	39.39
641.0	37.91
642.0	37.50
643.0	37.68
644.0	32.09
645.0	27.26
646.0	28.11
647.0	27.12
648.0	28.92
649.0	26.74
650.0	32.03
651.0	24.53
652.0	24.25
653.0	18.51
654.0	25.07
655.0	22.52
656.0	20.21
657.0	24.87
658.0	24.00
659.0	20.07
660.0	22.79
661.0	20.85
662.0	14.53
663.0	14.08
664.0	12.38
665.0	15.43
666.0	14.10
667.0	14.54
668.0	17.14
669.0	11.87
670.0	12.00
671.0	9.779
672.0	11.33
673.0	11.79
674.0	11.33
675.0	11.88
676.0	11.24
677.0	10.41
678.0	11.58
679.0	14.38
680.0	12.42
681.0	7.452
682.0	8.227
683.0	9.237
684.0	9.034
685.0	10.03
686.0	10.29
687.0	9.681
688.0	8.302
689.0	6.754
690.0	8.803
691.0	11.84
692.0	7.205
693.0	8.263
694.0	7.572
695.0	8.092
696.0	6.211
697.0	6.129
698.0	7.469
699.0	4.991
700.0	6.396
701.0	6.135
702.0	7.818
703.0	4.047
704.0	3.245
705.0	5.035
706.0	5.565
707.0	2.723
708.0	2.603
709.0	4.458
710.0	4.010
711.0	3.234
712.0	4.074
713.0	6.202
714.0	4.244
715.0	4.688
716.0	2.065
717.0	4.200
718.0	2.095
719.0	5.368
720.0	5.365
721.0	5.288
722.0	3.559
723.0	4.881
724.0	2.941
725.0	2.754
726.0	6.186
727.0	4.960
728.0	2.487
729.0	4.300
730.0	3.166
731.0	4.162
732.0	4.158
733.0	1.185
734.0	2.592
735.0	4.315
736.0	1.263
737.0	2.186
738.0	4.491
739.0	0.995
740.0	3.404
741.0	5.192
742.0	3.258
743.0	4.481
744.0	4.336
745.0	1.890
746.0	1.342
747.0	1.113
748.0	3.116
749.0	0.342
750.0	2.497
751.0	1.577
752.0	0.923
753.0	1.673
754.0	2.278
755.0	1.473
756.0	6.031
757.0	5.335
758.0	3.961
759.0	1.819
760.0	2.998
761.0	1.745
762.0	5.677
763.0	2.373
764.0	3.275
765.0	1.499
766.0	1.682
767.0	1.988
768.0	3.080
769.0	1.197
770.0	1.197
771.0	0.861
772.0	1.285
773.0	2.957
774.0	3.955
775.0	1.594
776.0	2.625
777.0	3.246
778.0	2.272
779.0	2.608
780.0	4.542

Sample:	'wa-4(EM)
File name:	50.FDS
Run Date:	'15:34:20, 07/11/2024
Operator:	WXH
Comment:	'

Instrument
Model:	F-4600 FL Spectrophotometer
Serial Number:	3080-002
ROM Version:	5J24000 02

Instrument Parameters
Measurement type:	Wavelength scan
Scan mode:	Emission
Data mode:	Fluorescence
EX WL:	460.0 nm
EM  Start WL:	480.0 nm
EM  End WL:	780.0 nm
Scan speed:	1200 nm/min
Delay:	0.0 s
EX Slit:	2.5 nm
EM Slit:	2.5 nm
PMT Voltage:	600 V
Response:	Auto 
Corrected spectra:	Off
Shutter control:	On

Peak integration
Integration method:	Rectangular
Sensitivity:	1
Threshold:	1.000

Peaks
No.	Valley(nm)	Valley(Data)
1	482.4	94.97
2	485.2	101.5
3	489.0	115.1
4	513.4	408.4
5	518.2	424.4
6	524.2	418.0
7	527.4	400.9
8	532.2	382.7
9	534.6	374.1
10	540.2	346.9
11	545.0	333.4
12	547.4	319.6
13	550.8	321.5
14	553.2	311.7
15	558.6	282.9
16	562.0	274.5
17	572.2	191.1
18	577.8	187.9
19	581.4	164.0
20	587.6	149.6
21	591.8	129.5
22	596.4	123.2
23	598.8	114.1
24	601.8	100.6
25	607.6	86.62
26	610.2	83.00
27	614.4	68.85
28	616.2	64.62
29	620.8	58.42
30	623.4	57.13
31	625.4	53.61
32	629.2	46.00
33	635.4	40.63
34	638.0	39.67
35	640.4	33.10
36	646.4	26.01
37	649.4	22.39
38	653.0	19.41
39	654.8	16.33
40	660.0	18.39
41	662.8	11.76
42	668.2	11.22
43	673.8	8.188
44	675.8	7.876
45	677.8	9.354
46	681.2	6.730
47	684.8	6.400
48	689.8	3.300
49	696.2	5.571
50	701.6	5.201
51	704.8	0.625
52	709.4	1.951
53	714.2	2.438
54	718.6	2.436
55	719.4	2.305
56	725.8	0.985
57	727.8	0.883
58	729.6	1.120
59	733.0	2.518
60	737.2	2.727
61	741.8	0.925
62	746.4	0.408
63	752.2	0.992
64	757.6	0.757
65	761.6	-0.359
66	769.4	1.869
67	771.4	1.578
68	775.0	-0.511
69	777.4	0.752
70	780.0	0.119

Data Points
nm	Data
480.0	104.0
481.0	105.3
482.0	97.82
483.0	102.6
484.0	103.1
485.0	104.6
486.0	113.4
487.0	106.3
488.0	112.1
489.0	115.1
490.0	123.2
491.0	132.2
492.0	140.1
493.0	148.0
494.0	150.5
495.0	180.9
496.0	170.4
497.0	188.9
498.0	210.6
499.0	223.5
500.0	232.8
501.0	258.6
502.0	279.4
503.0	305.4
504.0	299.4
505.0	319.2
506.0	346.9
507.0	365.7
508.0	383.3
509.0	382.9
510.0	396.7
511.0	402.3
512.0	413.1
513.0	420.7
514.0	417.5
515.0	415.3
516.0	435.6
517.0	444.7
518.0	425.4
519.0	446.1
520.0	470.8
521.0	452.0
522.0	443.3
523.0	435.6
524.0	427.0
525.0	440.8
526.0	435.5
527.0	423.8
528.0	417.2
529.0	407.8
530.0	407.9
531.0	408.6
532.0	405.6
533.0	418.4
534.0	404.3
535.0	380.6
536.0	393.7
537.0	391.1
538.0	378.6
539.0	361.4
540.0	350.2
541.0	373.1
542.0	387.7
543.0	375.2
544.0	349.2
545.0	333.4
546.0	352.4
547.0	335.3
548.0	335.2
549.0	347.3
550.0	342.6
551.0	324.2
552.0	332.1
553.0	317.6
554.0	314.7
555.0	335.7
556.0	293.3
557.0	295.6
558.0	296.4
559.0	298.3
560.0	295.7
561.0	303.7
562.0	274.5
563.0	287.9
564.0	300.8
565.0	291.0
566.0	276.3
567.0	251.9
568.0	253.4
569.0	252.0
570.0	256.2
571.0	235.1
572.0	206.0
573.0	208.0
574.0	217.9
575.0	215.1
576.0	208.9
577.0	208.8
578.0	191.4
579.0	190.2
580.0	177.0
581.0	180.3
582.0	185.4
583.0	185.0
584.0	178.0
585.0	174.3
586.0	146.0
587.0	153.3
588.0	154.5
589.0	158.1
590.0	156.5
591.0	140.1
592.0	130.0
593.0	144.6
594.0	137.3
595.0	129.0
596.0	130.2
597.0	136.2
598.0	119.0
599.0	119.8
600.0	116.7
601.0	111.7
602.0	108.6
603.0	110.0
604.0	109.0
605.0	100.3
606.0	98.84
607.0	106.2
608.0	91.44
609.0	99.75
610.0	85.37
611.0	91.19
612.0	90.93
613.0	89.61
614.0	75.46
615.0	80.06
616.0	73.19
617.0	75.07
618.0	78.01
619.0	73.90
620.0	70.49
621.0	60.06
622.0	65.21
623.0	63.11
624.0	60.87
625.0	57.08
626.0	58.81
627.0	65.79
628.0	52.97
629.0	48.62
630.0	53.28
631.0	49.13
632.0	48.95
633.0	44.35
634.0	48.48
635.0	43.23
636.0	46.61
637.0	43.57
638.0	39.67
639.0	47.52
640.0	35.27
641.0	36.11
642.0	36.38
643.0	29.36
644.0	27.55
645.0	25.66
646.0	27.57
647.0	27.16
648.0	26.84
649.0	26.73
650.0	25.22
651.0	30.36
652.0	23.73
653.0	19.41
654.0	23.05
655.0	17.84
656.0	20.69
657.0	27.10
658.0	22.83
659.0	19.58
660.0	18.39
661.0	23.63
662.0	16.90
663.0	12.87
664.0	22.00
